; (content of file Y:\Sam\Apurva-07-20-2022\puck1\ML_20220721_27_SJD_0_LaB6-4min.raw)
_FILEVERSION = 3
_SAMPLE = ML_20220721_27_SJD_0_LaB6-4min
_+SAMPLE = 
_SITE = USA
_USER = Administrator
_GONIOMETER_CODE = 20
; Goniometer : D8 theta/2theta, stage : Unknown
_ATTACHMENTS_CODE = 0
_GONIOMETER_RADIUS = 200.5
_FIXED_DIVSLIT = 0.6
_FIXED_SAMPLESLIT = 0
_SOLLER_SLITS = 2
_FIXED_DETSLIT = 9.55
_MONOCHROMATOR = 0
; Incident beam monochromator : None
_SOLLER_SLITS_2 = N
_THIN_FILM = N
_BETA_FILTER = Y
_FIXED_ANTISLIT = 5.89
_ANALYZER_CODE = 0
; Received beam analyzer : None
_DATEMEASURED = "25-Jul-2022 15:53:34"
_WL_UNIT = A
_WL1 = 1.5406
_WL2 = 1.54439
_WL3 = 1.39222
_WLRATIO = 0.5
_ANODE = Cu
_V4_INF_CREATOR = XRDWizard
_V4_INF_CREATOR_VERSION = V2.9.0.22
_V4_INF_WIZARD_VERSION = V2.9.0.22
_V4_INF_WIZARD_ADDINS = V2.9.0.22
_V4_INF_WIZARD_DOCTYPE = XRD
_V4_INF_OSUSER = McQueenLab
_V4_INF_USER = Administrator
_V4_INF_SITE = USA
_V4_INF_SAMPLEID = ML_20220721_27_SJD_0_LaB6-4min

; Data for range 1
_DRIVE = COUPLED
_STEPTIME = 11.28
_STEPSIZE = 0.0185756
_STEPMODE = C
_START = 5
_THETA = 2.5
_2THETA = 5
_KHI = 0
_PHI = 0
_X = 0
_Y = 0
_Z = 0
_DETECTOR = 5
; Detector type : Unknown
_DETECTORSLIT = unkn
_AUX1 = 0
_AUX2 = 0
_AUX3 = 0
_TIMESTARTED = 15
_TEMP_RATE = -1
_TEMP_DELAY = -1
_KV = 40
_MA = 40
_RANGE_WL = 1.5406
_3DPLANE = 0
_V4_ADDITIONALDETECTOR = 257
_V4_PSD2THETA = 3.3651
_V4_PSDCHANNEL1 = 0
_V4_PSDAPERTURE = 12.68
_V4_PSDTYPE = 5
_V4_PSDFIXED = 0
_V4_COUNTERS_MASK = 4096
_V4_DRIVES_MASK = 0
_V4_ENCODERS_MASK = 0
_2THETACOUNTS = 1
; 2THETA  PSD
   5.0000        250
   5.0186        280
   5.0372        248
   5.0557        296
   5.0743        276
   5.0929        287
   5.1115        293
   5.1300        287
   5.1486        272
   5.1672        264
   5.1858        263
   5.2043        247
   5.2229        254
   5.2415        243
   5.2601        237
   5.2786        232
   5.2972        228
   5.3158        240
   5.3344        233
   5.3529        249
   5.3715        231
   5.3901        241
   5.4087        247
   5.4272        249
   5.4458        236
   5.4644        226
   5.4830        245
   5.5015        233
   5.5201        228
   5.5387        222
   5.5573        223
   5.5758        261
   5.5944        216
   5.6130        241
   5.6316        201
   5.6501        252
   5.6687        228
   5.6873        201
   5.7059        237
   5.7244        245
   5.7430        221
   5.7616        216
   5.7802        219
   5.7988        257
   5.8173        218
   5.8359        195
   5.8545        210
   5.8731        195
   5.8916        208
   5.9102        189
   5.9288        213
   5.9474        213
   5.9659        203
   5.9845        182
   6.0031        201
   6.0217        199
   6.0402        192
   6.0588        231
   6.0774        185
   6.0960        199
   6.1145        197
   6.1331        199
   6.1517        195
   6.1703        183
   6.1888        200
   6.2074        183
   6.2260        179
   6.2446        192
   6.2631        207
   6.2817        198
   6.3003        197
   6.3189        196
   6.3374        187
   6.3560        191
   6.3746        169
   6.3932        156
   6.4117        186
   6.4303        179
   6.4489        166
   6.4675        194
   6.4860        184
   6.5046        195
   6.5232        169
   6.5418        164
   6.5604        197
   6.5789        183
   6.5975        173
   6.6161        170
   6.6347        172
   6.6532        177
   6.6718        178
   6.6904        171
   6.7090        162
   6.7275        193
   6.7461        183
   6.7647        191
   6.7833        189
   6.8018        173
   6.8204        169
   6.8390        150
   6.8576        159
   6.8761        157
   6.8947        164
   6.9133        164
   6.9319        177
   6.9504        177
   6.9690        155
   6.9876        155
   7.0062        174
   7.0247        183
   7.0433        145
   7.0619        177
   7.0805        167
   7.0990        159
   7.1176        159
   7.1362        146
   7.1548        158
   7.1733        174
   7.1919        152
   7.2105        168
   7.2291        171
   7.2476        163
   7.2662        167
   7.2848        167
   7.3034        173
   7.3220        157
   7.3405        164
   7.3591        150
   7.3777        176
   7.3963        180
   7.4148        146
   7.4334        175
   7.4520        177
   7.4706        178
   7.4891        163
   7.5077        189
   7.5263        154
   7.5449        183
   7.5634        169
   7.5820        163
   7.6006        188
   7.6192        188
   7.6377        168
   7.6563        177
   7.6749        165
   7.6935        192
   7.7120        183
   7.7306        170
   7.7492        191
   7.7678        176
   7.7863        189
   7.8049        164
   7.8235        161
   7.8421        182
   7.8606        178
   7.8792        185
   7.8978        186
   7.9164        199
   7.9349        194
   7.9535        189
   7.9721        176
   7.9907        182
   8.0092        195
   8.0278        181
   8.0464        204
   8.0650        195
   8.0835        198
   8.1021        187
   8.1207        183
   8.1393        176
   8.1579        168
   8.1764        205
   8.1950        196
   8.2136        174
   8.2322        214
   8.2507        207
   8.2693        198
   8.2879        186
   8.3065        194
   8.3250        206
   8.3436        224
   8.3622        187
   8.3808        199
   8.3993        185
   8.4179        204
   8.4365        206
   8.4551        223
   8.4736        195
   8.4922        199
   8.5108        192
   8.5294        199
   8.5479        197
   8.5665        181
   8.5851        233
   8.6037        187
   8.6222        181
   8.6408        176
   8.6594        179
   8.6780        185
   8.6965        212
   8.7151        199
   8.7337        188
   8.7523        208
   8.7708        198
   8.7894        226
   8.8080        228
   8.8266        219
   8.8451        228
   8.8637        199
   8.8823        214
   8.9009        210
   8.9195        212
   8.9380        221
   8.9566        198
   8.9752        220
   8.9938        199
   9.0123        214
   9.0309        222
   9.0495        218
   9.0681        221
   9.0866        206
   9.1052        210
   9.1238        226
   9.1424        238
   9.1609        229
   9.1795        219
   9.1981        196
   9.2167        230
   9.2352        214
   9.2538        207
   9.2724        219
   9.2910        235
   9.3095        243
   9.3281        239
   9.3467        218
   9.3653        233
   9.3838        221
   9.4024        212
   9.4210        219
   9.4396        233
   9.4581        211
   9.4767        223
   9.4953        235
   9.5139        224
   9.5324        221
   9.5510        222
   9.5696        240
   9.5882        223
   9.6067        229
   9.6253        225
   9.6439        237
   9.6625        219
   9.6811        198
   9.6996        225
   9.7182        202
   9.7368        248
   9.7554        249
   9.7739        226
   9.7925        221
   9.8111        201
   9.8297        217
   9.8482        232
   9.8668        249
   9.8854        231
   9.9040        247
   9.9225        259
   9.9411        247
   9.9597        238
   9.9783        256
   9.9968        219
  10.0154        225
  10.0340        234
  10.0526        255
  10.0711        238
  10.0897        270
  10.1083        251
  10.1269        260
  10.1454        261
  10.1640        234
  10.1826        231
  10.2012        261
  10.2197        254
  10.2383        263
  10.2569        228
  10.2755        242
  10.2940        221
  10.3126        211
  10.3312        229
  10.3498        220
  10.3683        220
  10.3869        234
  10.4055        229
  10.4241        222
  10.4427        211
  10.4612        231
  10.4798        244
  10.4984        246
  10.5170        275
  10.5355        239
  10.5541        233
  10.5727        241
  10.5913        244
  10.6098        235
  10.6284        273
  10.6470        254
  10.6656        236
  10.6841        260
  10.7027        220
  10.7213        253
  10.7399        259
  10.7584        254
  10.7770        231
  10.7956        241
  10.8142        249
  10.8327        240
  10.8513        261
  10.8699        269
  10.8885        228
  10.9070        230
  10.9256        243
  10.9442        282
  10.9628        251
  10.9813        227
  10.9999        269
  11.0185        243
  11.0371        222
  11.0556        234
  11.0742        229
  11.0928        240
  11.1114        240
  11.1299        233
  11.1485        258
  11.1671        234
  11.1857        235
  11.2043        255
  11.2228        253
  11.2414        260
  11.2600        243
  11.2786        241
  11.2971        238
  11.3157        254
  11.3343        243
  11.3529        224
  11.3714        235
  11.3900        238
  11.4086        252
  11.4272        223
  11.4457        258
  11.4643        267
  11.4829        224
  11.5015        208
  11.5200        232
  11.5386        229
  11.5572        234
  11.5758        261
  11.5943        233
  11.6129        221
  11.6315        223
  11.6501        239
  11.6686        226
  11.6872        235
  11.7058        219
  11.7244        255
  11.7429        229
  11.7615        229
  11.7801        232
  11.7987        255
  11.8172        249
  11.8358        249
  11.8544        231
  11.8730        244
  11.8915        211
  11.9101        246
  11.9287        244
  11.9473        230
  11.9659        220
  11.9844        214
  12.0030        229
  12.0216        222
  12.0402        255
  12.0587        241
  12.0773        249
  12.0959        240
  12.1145        216
  12.1330        259
  12.1516        239
  12.1702        214
  12.1888        220
  12.2073        217
  12.2259        244
  12.2445        237
  12.2631        229
  12.2816        254
  12.3002        239
  12.3188        191
  12.3374        229
  12.3559        239
  12.3745        206
  12.3931        224
  12.4117        216
  12.4302        225
  12.4488        213
  12.4674        200
  12.4860        223
  12.5045        245
  12.5231        232
  12.5417        209
  12.5603        234
  12.5788        244
  12.5974        213
  12.6160        206
  12.6346        223
  12.6531        220
  12.6717        213
  12.6903        220
  12.7089        215
  12.7274        203
  12.7460        208
  12.7646        191
  12.7832        212
  12.8018        208
  12.8203        187
  12.8389        221
  12.8575        222
  12.8761        228
  12.8946        221
  12.9132        240
  12.9318        193
  12.9504        231
  12.9689        210
  12.9875        228
  13.0061        190
  13.0247        193
  13.0432        225
  13.0618        203
  13.0804        197
  13.0990        192
  13.1175        224
  13.1361        235
  13.1547        209
  13.1733        211
  13.1918        190
  13.2104        201
  13.2290        238
  13.2476        193
  13.2661        181
  13.2847        193
  13.3033        186
  13.3219        197
  13.3404        193
  13.3590        191
  13.3776        212
  13.3962        188
  13.4147        197
  13.4333        186
  13.4519        189
  13.4705        165
  13.4890        191
  13.5076        214
  13.5262        182
  13.5448        206
  13.5634        201
  13.5819        195
  13.6005        168
  13.6191        149
  13.6377        183
  13.6562        191
  13.6748        206
  13.6934        189
  13.7120        188
  13.7305        183
  13.7491        185
  13.7677        176
  13.7863        191
  13.8048        184
  13.8234        180
  13.8420        175
  13.8606        195
  13.8791        162
  13.8977        201
  13.9163        202
  13.9349        171
  13.9534        195
  13.9720        183
  13.9906        196
  14.0092        207
  14.0277        187
  14.0463        189
  14.0649        205
  14.0835        168
  14.1020        194
  14.1206        173
  14.1392        182
  14.1578        214
  14.1763        175
  14.1949        171
  14.2135        199
  14.2321        186
  14.2506        163
  14.2692        178
  14.2878        185
  14.3064        182
  14.3250        161
  14.3435        186
  14.3621        200
  14.3807        167
  14.3993        186
  14.4178        199
  14.4364        160
  14.4550        189
  14.4736        187
  14.4921        175
  14.5107        172
  14.5293        188
  14.5479        179
  14.5664        146
  14.5850        169
  14.6036        199
  14.6222        163
  14.6407        168
  14.6593        150
  14.6779        187
  14.6965        177
  14.7150        175
  14.7336        145
  14.7522        181
  14.7708        174
  14.7893        171
  14.8079        157
  14.8265        171
  14.8451        197
  14.8636        170
  14.8822        180
  14.9008        152
  14.9194        151
  14.9379        180
  14.9565        164
  14.9751        175
  14.9937        188
  15.0122        183
  15.0308        185
  15.0494        186
  15.0680        177
  15.0866        162
  15.1051        146
  15.1237        181
  15.1423        161
  15.1609        190
  15.1794        163
  15.1980        177
  15.2166        192
  15.2352        186
  15.2537        155
  15.2723        184
  15.2909        169
  15.3095        179
  15.3280        178
  15.3466        160
  15.3652        162
  15.3838        140
  15.4023        179
  15.4209        159
  15.4395        156
  15.4581        156
  15.4766        171
  15.4952        174
  15.5138        172
  15.5324        181
  15.5509        161
  15.5695        168
  15.5881        140
  15.6067        166
  15.6252        170
  15.6438        160
  15.6624        149
  15.6810        167
  15.6995        170
  15.7181        168
  15.7367        160
  15.7553        154
  15.7738        149
  15.7924        199
  15.8110        157
  15.8296        169
  15.8482        169
  15.8667        153
  15.8853        144
  15.9039        165
  15.9225        155
  15.9410        150
  15.9596        152
  15.9782        166
  15.9968        159
  16.0153        157
  16.0339        179
  16.0525        146
  16.0711        168
  16.0896        168
  16.1082        177
  16.1268        166
  16.1454        179
  16.1639        176
  16.1825        149
  16.2011        157
  16.2197        147
  16.2382        151
  16.2568        162
  16.2754        169
  16.2940        133
  16.3125        165
  16.3311        144
  16.3497        180
  16.3683        159
  16.3868        181
  16.4054        145
  16.4240        139
  16.4426        152
  16.4611        165
  16.4797        165
  16.4983        191
  16.5169        172
  16.5354        149
  16.5540        148
  16.5726        158
  16.5912        159
  16.6097        196
  16.6283        161
  16.6469        169
  16.6655        147
  16.6841        173
  16.7026        150
  16.7212        152
  16.7398        169
  16.7584        192
  16.7769        175
  16.7955        178
  16.8141        165
  16.8327        160
  16.8512        168
  16.8698        158
  16.8884        152
  16.9070        184
  16.9255        153
  16.9441        170
  16.9627        193
  16.9813        186
  16.9998        155
  17.0184        167
  17.0370        169
  17.0556        167
  17.0741        154
  17.0927        147
  17.1113        152
  17.1299        159
  17.1484        158
  17.1670        150
  17.1856        167
  17.2042        162
  17.2227        165
  17.2413        145
  17.2599        165
  17.2785        152
  17.2970        177
  17.3156        166
  17.3342        148
  17.3528        164
  17.3713        169
  17.3899        160
  17.4085        173
  17.4271        149
  17.4457        154
  17.4642        160
  17.4828        147
  17.5014        163
  17.5200        141
  17.5385        164
  17.5571        174
  17.5757        152
  17.5943        152
  17.6128        173
  17.6314        165
  17.6500        142
  17.6686        157
  17.6871        173
  17.7057        173
  17.7243        165
  17.7429        176
  17.7614        149
  17.7800        183
  17.7986        196
  17.8172        159
  17.8357        139
  17.8543        157
  17.8729        156
  17.8915        161
  17.9100        172
  17.9286        194
  17.9472        155
  17.9658        157
  17.9843        158
  18.0029        181
  18.0215        155
  18.0401        154
  18.0586        185
  18.0772        173
  18.0958        193
  18.1144        160
  18.1329        173
  18.1515        158
  18.1701        151
  18.1887        146
  18.2073        179
  18.2258        156
  18.2444        176
  18.2630        152
  18.2816        150
  18.3001        178
  18.3187        164
  18.3373        197
  18.3559        165
  18.3744        156
  18.3930        178
  18.4116        180
  18.4302        153
  18.4487        155
  18.4673        164
  18.4859        186
  18.5045        156
  18.5230        204
  18.5416        160
  18.5602        143
  18.5788        172
  18.5973        177
  18.6159        170
  18.6345        183
  18.6531        160
  18.6716        169
  18.6902        171
  18.7088        180
  18.7274        160
  18.7459        169
  18.7645        180
  18.7831        170
  18.8017        162
  18.8202        184
  18.8388        156
  18.8574        163
  18.8760        176
  18.8945        165
  18.9131        169
  18.9317        160
  18.9503        156
  18.9689        185
  18.9874        170
  19.0060        160
  19.0246        162
  19.0432        182
  19.0617        167
  19.0803        185
  19.0989        154
  19.1175        190
  19.1360        172
  19.1546        169
  19.1732        161
  19.1918        180
  19.2103        194
  19.2289        169
  19.2475        161
  19.2661        164
  19.2846        179
  19.3032        184
  19.3218        175
  19.3404        163
  19.3589        160
  19.3775        176
  19.3961        175
  19.4147        161
  19.4332        194
  19.4518        189
  19.4704        178
  19.4890        186
  19.5075        165
  19.5261        172
  19.5447        203
  19.5633        201
  19.5818        177
  19.6004        173
  19.6190        165
  19.6376        168
  19.6561        181
  19.6747        182
  19.6933        188
  19.7119        186
  19.7305        162
  19.7490        198
  19.7676        170
  19.7862        178
  19.8048        180
  19.8233        165
  19.8419        161
  19.8605        197
  19.8791        161
  19.8976        158
  19.9162        179
  19.9348        200
  19.9534        166
  19.9719        190
  19.9905        194
  20.0091        188
  20.0277        177
  20.0462        171
  20.0648        174
  20.0834        190
  20.1020        161
  20.1205        187
  20.1391        182
  20.1577        185
  20.1763        178
  20.1948        171
  20.2134        188
  20.2320        182
  20.2506        176
  20.2691        170
  20.2877        157
  20.3063        191
  20.3249        171
  20.3434        183
  20.3620        181
  20.3806        172
  20.3992        157
  20.4177        168
  20.4363        188
  20.4549        186
  20.4735        207
