; (content of file Y:\Sam\Apurva-07-20-2022\puck4\ML_20220718_50_SJD_4_LaB6-2min.raw)
_FILEVERSION = 3
_SAMPLE = ML_20220718_50_SJD_4_LaB6-2min
_+SAMPLE = 
_SITE = USA
_USER = Administrator
_GONIOMETER_CODE = 20
; Goniometer : D8 theta/2theta, stage : Unknown
_ATTACHMENTS_CODE = 0
_GONIOMETER_RADIUS = 200.5
_FIXED_DIVSLIT = 0.6
_FIXED_SAMPLESLIT = 0
_SOLLER_SLITS = 2
_FIXED_DETSLIT = 9.55
_MONOCHROMATOR = 0
; Incident beam monochromator : None
_SOLLER_SLITS_2 = N
_THIN_FILM = N
_BETA_FILTER = Y
_FIXED_ANTISLIT = 5.89
_ANALYZER_CODE = 0
; Received beam analyzer : None
_DATEMEASURED = "26-Jul-2022 12:27:38"
_WL_UNIT = A
_WL1 = 1.5406
_WL2 = 1.54439
_WL3 = 1.39222
_WLRATIO = 0.5
_ANODE = Cu
_V4_INF_CREATOR = XRDWizard
_V4_INF_CREATOR_VERSION = V2.9.0.22
_V4_INF_WIZARD_VERSION = V2.9.0.22
_V4_INF_WIZARD_ADDINS = V2.9.0.22
_V4_INF_WIZARD_DOCTYPE = XRD
_V4_INF_OSUSER = McQueenLab
_V4_INF_USER = Administrator
_V4_INF_SITE = USA
_V4_INF_SAMPLEID = ML_20220718_50_SJD_4_LaB6-2min

; Data for range 1
_DRIVE = COUPLED
_STEPTIME = 5.64
_STEPSIZE = 0.0185756
_STEPMODE = C
_START = 5
_THETA = 2.5
_2THETA = 5
_KHI = 0
_PHI = 0
_X = 0
_Y = 0
_Z = 0
_DETECTOR = 5
; Detector type : Unknown
_DETECTORSLIT = unkn
_AUX1 = 0
_AUX2 = 0
_AUX3 = 0
_TIMESTARTED = 15
_TEMP_RATE = -1
_TEMP_DELAY = -1
_KV = 40
_MA = 40
_RANGE_WL = 1.5406
_3DPLANE = 0
_V4_ADDITIONALDETECTOR = 257
_V4_PSD2THETA = 3.4183
_V4_PSDCHANNEL1 = 0
_V4_PSDAPERTURE = 12.68
_V4_PSDTYPE = 5
_V4_PSDFIXED = 0
_V4_COUNTERS_MASK = 4096
_V4_DRIVES_MASK = 0
_V4_ENCODERS_MASK = 0
_2THETACOUNTS = 1
; 2THETA  PSD
   5.0000        115
   5.0186        125
   5.0372        128
   5.0557        104
   5.0743        143
   5.0929        150
   5.1115        130
   5.1300        124
   5.1486        111
   5.1672        124
   5.1858        106
   5.2043        112
   5.2229        114
   5.2415        121
   5.2601        127
   5.2786        118
   5.2972         93
   5.3158        129
   5.3344        133
   5.3529        103
   5.3715        100
   5.3901        133
   5.4087        109
   5.4272        101
   5.4458        106
   5.4644        119
   5.4830        114
   5.5015        121
   5.5201        107
   5.5387        118
   5.5573        126
   5.5758        116
   5.5944        126
   5.6130        112
   5.6316        116
   5.6501         99
   5.6687        112
   5.6873        103
   5.7059        109
   5.7244        111
   5.7430         85
   5.7616        100
   5.7802        104
   5.7988         89
   5.8173         99
   5.8359        108
   5.8545        114
   5.8731        113
   5.8916        117
   5.9102        105
   5.9288         91
   5.9474        111
   5.9659        100
   5.9845         95
   6.0031        105
   6.0217         94
   6.0402         81
   6.0588        105
   6.0774         85
   6.0960         98
   6.1145        103
   6.1331         78
   6.1517         89
   6.1703         79
   6.1888         90
   6.2074        107
   6.2260         87
   6.2446         94
   6.2631         96
   6.2817         86
   6.3003         97
   6.3189         94
   6.3374         90
   6.3560         94
   6.3746         90
   6.3932        104
   6.4117         92
   6.4303         97
   6.4489         87
   6.4675         76
   6.4860         88
   6.5046         81
   6.5232         75
   6.5418         90
   6.5604         97
   6.5789         73
   6.5975         79
   6.6161         86
   6.6347         81
   6.6532         68
   6.6718         89
   6.6904         88
   6.7090         80
   6.7275         95
   6.7461         89
   6.7647        104
   6.7833         78
   6.8018         89
   6.8204         85
   6.8390         87
   6.8576         77
   6.8761         99
   6.8947         72
   6.9133         84
   6.9319         68
   6.9504         88
   6.9690         73
   6.9876         75
   7.0062         75
   7.0247         71
   7.0433         80
   7.0619         69
   7.0805         77
   7.0990         93
   7.1176         74
   7.1362         68
   7.1548         70
   7.1733         84
   7.1919         86
   7.2105         78
   7.2291         72
   7.2476         84
   7.2662         75
   7.2848         79
   7.3034         75
   7.3220         69
   7.3405         75
   7.3591         87
   7.3777         84
   7.3963         76
   7.4148         80
   7.4334         73
   7.4520         74
   7.4706         79
   7.4891         81
   7.5077         79
   7.5263         80
   7.5449         77
   7.5634         75
   7.5820         74
   7.6006         78
   7.6192         81
   7.6377        100
   7.6563         91
   7.6749         77
   7.6935         90
   7.7120         87
   7.7306         89
   7.7492         85
   7.7678         94
   7.7863         85
   7.8049        105
   7.8235         88
   7.8421         85
   7.8606         89
   7.8792         95
   7.8978         80
   7.9164         93
   7.9349        103
   7.9535         93
   7.9721         99
   7.9907         84
   8.0092        100
   8.0278         84
   8.0464        116
   8.0650         87
   8.0835         82
   8.1021         96
   8.1207         85
   8.1393         85
   8.1579         94
   8.1764        107
   8.1950         87
   8.2136         84
   8.2322         90
   8.2507         75
   8.2693         81
   8.2879         96
   8.3065         88
   8.3250        103
   8.3436         97
   8.3622         80
   8.3808         97
   8.3993         98
   8.4179        106
   8.4365         80
   8.4551         86
   8.4736        100
   8.4922         99
   8.5108         84
   8.5294         85
   8.5479         84
   8.5665        101
   8.5851        100
   8.6037        108
   8.6222        101
   8.6408        117
   8.6594         81
   8.6780         90
   8.6965         98
   8.7151        113
   8.7337        114
   8.7523        102
   8.7708        105
   8.7894         94
   8.8080        104
   8.8266         81
   8.8451         97
   8.8637        110
   8.8823        111
   8.9009        100
   8.9195        103
   8.9380         93
   8.9566        100
   8.9752         96
   8.9938        101
   9.0123         87
   9.0309        118
   9.0495         97
   9.0681        106
   9.0866        109
   9.1052        111
   9.1238        104
   9.1424        110
   9.1609        100
   9.1795         93
   9.1981        114
   9.2167        109
   9.2352        113
   9.2538        119
   9.2724         85
   9.2910        105
   9.3095        103
   9.3281         98
   9.3467        115
   9.3653         97
   9.3838         97
   9.4024        104
   9.4210        109
   9.4396        108
   9.4581        135
   9.4767        100
   9.4953        104
   9.5139        112
   9.5324        129
   9.5510        121
   9.5696        108
   9.5882        103
   9.6067        105
   9.6253        114
   9.6439        133
   9.6625        120
   9.6811        105
   9.6996        105
   9.7182        115
   9.7368        125
   9.7554        124
   9.7739        109
   9.7925        117
   9.8111        104
   9.8297        115
   9.8482        125
   9.8668         97
   9.8854        129
   9.9040        118
   9.9225        129
   9.9411        123
   9.9597        135
   9.9783        120
   9.9968        134
  10.0154         99
  10.0340        120
  10.0526        126
  10.0711        115
  10.0897        121
  10.1083        125
  10.1269        115
  10.1454        113
  10.1640        117
  10.1826        106
  10.2012         99
  10.2197        123
  10.2383        118
  10.2569        121
  10.2755        118
  10.2940        113
  10.3126        119
  10.3312        128
  10.3498        136
  10.3683        112
  10.3869        114
  10.4055        123
  10.4241        107
  10.4427        144
  10.4612        123
  10.4798        128
  10.4984        118
  10.5170        112
  10.5355        102
  10.5541         98
  10.5727        114
  10.5913        112
  10.6098        133
  10.6284        125
  10.6470        130
  10.6656        108
  10.6841        114
  10.7027        132
  10.7213        115
  10.7399        118
  10.7584        100
  10.7770        122
  10.7956        112
  10.8142        130
  10.8327        104
  10.8513        112
  10.8699        102
  10.8885        128
  10.9070        115
  10.9256        111
  10.9442        120
  10.9628        131
  10.9813        123
  10.9999        111
  11.0185         97
  11.0371        104
  11.0556        111
  11.0742         96
  11.0928         97
  11.1114        132
  11.1299        111
  11.1485        107
  11.1671        106
  11.1857        131
  11.2043        118
  11.2228        124
  11.2414        135
  11.2600        133
  11.2786        132
  11.2971        117
  11.3157        126
  11.3343        108
  11.3529        116
  11.3714        120
  11.3900        124
  11.4086        129
  11.4272        127
  11.4457        111
  11.4643        126
  11.4829        119
  11.5015        128
  11.5200        126
  11.5386        112
  11.5572        112
  11.5758        113
  11.5943        127
  11.6129        118
  11.6315        106
  11.6501        115
  11.6686         99
  11.6872        121
  11.7058        117
  11.7244        121
  11.7429        127
  11.7615        122
  11.7801        116
  11.7987        118
  11.8172         88
  11.8358        104
  11.8544        103
  11.8730        120
  11.8915        124
  11.9101        119
  11.9287         88
  11.9473        130
  11.9659         98
  11.9844        129
  12.0030        114
  12.0216        116
  12.0402        111
  12.0587        101
  12.0773        105
  12.0959        116
  12.1145        104
  12.1330        111
  12.1516         95
  12.1702        113
  12.1888        122
  12.2073        100
  12.2259        104
  12.2445        103
  12.2631        117
  12.2816        114
  12.3002        100
  12.3188        110
  12.3374        112
  12.3559         98
  12.3745         94
  12.3931         90
  12.4117        108
  12.4302        134
  12.4488        118
  12.4674        121
  12.4860        108
  12.5045         99
  12.5231        128
  12.5417         91
  12.5603        117
  12.5788        108
  12.5974        112
  12.6160        106
  12.6346         98
  12.6531         97
  12.6717        109
  12.6903        122
  12.7089        112
  12.7274        108
  12.7460        101
  12.7646        106
  12.7832         98
  12.8018        103
  12.8203        100
  12.8389         79
  12.8575         95
  12.8761        116
  12.8946         98
  12.9132        110
  12.9318        110
  12.9504         87
  12.9689        101
  12.9875         98
  13.0061         94
  13.0247         99
  13.0432        111
  13.0618         99
  13.0804         98
  13.0990        122
  13.1175         85
  13.1361         95
  13.1547        108
  13.1733         90
  13.1918        110
  13.2104        102
  13.2290        100
  13.2476         88
  13.2661         95
  13.2847         97
  13.3033         97
  13.3219        109
  13.3404        105
  13.3590         76
  13.3776         95
  13.3962        105
  13.4147         99
  13.4333         89
  13.4519         93
  13.4705        105
  13.4890        103
  13.5076        105
  13.5262         90
  13.5448         93
  13.5634        101
  13.5819        122
  13.6005         92
  13.6191        113
  13.6377         94
  13.6562         87
  13.6748         88
  13.6934         99
  13.7120         94
  13.7305         97
  13.7491         78
  13.7677        103
  13.7863         96
  13.8048        103
  13.8234         91
  13.8420        102
  13.8606        100
  13.8791        100
  13.8977         70
  13.9163         95
  13.9349         81
  13.9534         92
  13.9720         99
  13.9906         85
  14.0092         89
  14.0277         98
  14.0463         90
  14.0649         96
  14.0835         97
  14.1020         93
  14.1206         86
  14.1392         92
  14.1578        100
  14.1763         92
  14.1949         85
  14.2135         63
  14.2321         89
  14.2506        101
  14.2692         93
  14.2878         99
  14.3064        103
  14.3250         98
  14.3435         97
  14.3621         82
  14.3807        102
  14.3993         91
  14.4178         92
  14.4364         92
  14.4550         83
  14.4736         80
  14.4921         91
  14.5107         78
  14.5293         86
  14.5479         89
  14.5664         86
  14.5850         76
  14.6036         81
  14.6222         86
  14.6407         80
  14.6593         98
  14.6779         82
  14.6965         79
  14.7150         72
  14.7336         82
  14.7522         85
  14.7708         81
  14.7893         91
  14.8079         88
  14.8265         83
  14.8451         60
  14.8636         79
  14.8822         61
  14.9008         62
  14.9194         95
  14.9379         71
  14.9565         90
  14.9751         78
  14.9937         93
  15.0122         85
  15.0308         64
  15.0494         90
  15.0680         84
  15.0866        104
  15.1051         72
  15.1237         65
  15.1423         95
  15.1609         78
  15.1794         89
  15.1980         78
  15.2166         87
  15.2352         76
  15.2537         65
  15.2723         77
  15.2909         86
  15.3095         67
  15.3280         70
  15.3466         76
  15.3652         85
  15.3838         84
  15.4023         88
  15.4209         89
  15.4395         64
  15.4581         77
  15.4766         79
  15.4952         80
  15.5138         83
  15.5324         86
  15.5509         75
  15.5695         75
  15.5881         89
  15.6067         68
  15.6252         86
  15.6438         83
  15.6624         80
  15.6810         66
  15.6995         88
  15.7181         91
  15.7367         93
  15.7553         91
  15.7738         83
  15.7924         85
  15.8110         89
  15.8296         82
  15.8482         87
  15.8667         80
  15.8853         65
  15.9039         72
  15.9225         72
  15.9410         82
  15.9596         81
  15.9782         90
  15.9968         84
  16.0153         75
  16.0339         89
  16.0525         77
  16.0711         87
  16.0896         94
  16.1082         80
  16.1268         73
  16.1454         83
  16.1639         79
  16.1825         93
  16.2011         83
  16.2197         76
  16.2382         71
  16.2568         75
  16.2754         79
  16.2940         89
  16.3125         99
  16.3311         93
  16.3497         83
  16.3683         67
  16.3868         62
  16.4054         74
  16.4240         70
  16.4426         86
  16.4611         71
  16.4797         89
  16.4983         71
  16.5169         86
  16.5354         86
  16.5540         63
  16.5726         72
  16.5912         80
  16.6097         87
  16.6283         82
  16.6469         94
  16.6655         78
  16.6841         80
  16.7026         81
  16.7212         86
  16.7398         64
  16.7584         73
  16.7769         63
  16.7955         81
  16.8141         80
  16.8327         68
  16.8512         76
  16.8698         77
  16.8884         82
  16.9070         88
  16.9255         71
  16.9441         83
  16.9627         88
  16.9813         76
  16.9998         70
  17.0184         75
  17.0370         69
  17.0556         78
  17.0741         77
  17.0927         71
  17.1113         73
  17.1299         72
  17.1484         70
  17.1670         99
  17.1856         75
  17.2042         97
  17.2227         73
  17.2413         76
  17.2599         76
  17.2785         83
  17.2970         75
  17.3156         73
  17.3342         70
  17.3528         84
  17.3713         77
  17.3899         77
  17.4085         74
  17.4271         75
  17.4457         94
  17.4642         71
  17.4828         85
  17.5014         87
  17.5200         93
  17.5385         77
  17.5571         91
  17.5757         72
  17.5943         68
  17.6128         77
  17.6314         89
  17.6500        102
  17.6686         72
  17.6871         76
  17.7057         75
  17.7243         78
  17.7429         78
  17.7614         80
  17.7800         78
  17.7986         84
  17.8172         88
  17.8357         98
  17.8543         75
  17.8729         83
  17.8915         80
  17.9100         73
  17.9286         75
  17.9472         87
  17.9658         71
  17.9843         78
  18.0029         79
  18.0215         74
  18.0401         76
  18.0586         75
  18.0772         92
  18.0958         92
  18.1144         88
  18.1329         78
  18.1515         74
  18.1701         82
  18.1887         91
  18.2073         72
  18.2258         77
  18.2444         76
  18.2630         93
  18.2816         83
  18.3001         86
  18.3187         80
  18.3373         83
  18.3559         89
  18.3744         88
  18.3930         87
  18.4116         70
  18.4302         82
  18.4487         81
  18.4673        105
  18.4859         73
  18.5045         88
  18.5230         82
  18.5416         80
  18.5602         65
  18.5788         85
  18.5973         98
  18.6159         86
  18.6345         83
  18.6531         74
  18.6716         94
  18.6902         96
  18.7088         88
  18.7274         81
  18.7459         68
  18.7645         85
  18.7831         99
  18.8017         75
  18.8202         86
  18.8388         90
  18.8574         72
  18.8760         75
  18.8945         64
  18.9131         95
  18.9317         84
  18.9503         88
  18.9689         86
  18.9874         80
  19.0060         78
  19.0246         83
  19.0432         54
  19.0617         88
  19.0803         71
  19.0989         79
  19.1175         83
  19.1360         74
  19.1546         88
  19.1732         68
  19.1918         86
  19.2103         89
  19.2289         69
  19.2475         81
  19.2661         76
  19.2846         70
  19.3032         85
  19.3218         77
  19.3404        118
  19.3589         82
  19.3775         87
  19.3961         87
  19.4147         78
  19.4332         98
  19.4518         86
  19.4704         78
  19.4890         94
  19.5075         96
  19.5261         90
  19.5447         89
  19.5633         82
  19.5818         85
  19.6004         80
  19.6190         85
  19.6376        112
  19.6561         90
  19.6747        107
  19.6933         86
  19.7119         77
  19.7305         92
  19.7490         81
  19.7676         87
  19.7862         75
  19.8048         82
  19.8233         75
  19.8419         80
  19.8605         95
  19.8791         99
  19.8976         96
  19.9162         87
  19.9348         77
  19.9534         94
  19.9719        105
  19.9905         83
  20.0091         96
  20.0277         81
  20.0462         76
  20.0648         90
  20.0834         81
  20.1020         85
  20.1205         94
  20.1391         94
  20.1577         85
  20.1763         83
  20.1948         94
  20.2134        107
  20.2320         89
  20.2506         95
  20.2691         92
  20.2877        115
  20.3063         93
  20.3249         91
  20.3434         98
  20.3620         79
  20.3806        108
  20.3992         85
  20.4177         85
  20.4363         87
  20.4549         87
  20.4735         82
