; (content of file Y:\Sam\Apurva-07-20-2022\puck1\ML_20220721_39_SJD_0_LaB6-4min.raw)
_FILEVERSION = 3
_SAMPLE = ML_20220721_39_SJD_0_LaB6-4min
_+SAMPLE = 
_SITE = USA
_USER = Administrator
_GONIOMETER_CODE = 20
; Goniometer : D8 theta/2theta, stage : Unknown
_ATTACHMENTS_CODE = 0
_GONIOMETER_RADIUS = 200.5
_FIXED_DIVSLIT = 0.6
_FIXED_SAMPLESLIT = 0
_SOLLER_SLITS = 2
_FIXED_DETSLIT = 9.55
_MONOCHROMATOR = 0
; Incident beam monochromator : None
_SOLLER_SLITS_2 = N
_THIN_FILM = N
_BETA_FILTER = Y
_FIXED_ANTISLIT = 5.89
_ANALYZER_CODE = 0
; Received beam analyzer : None
_DATEMEASURED = "25-Jul-2022 16:47:18"
_WL_UNIT = A
_WL1 = 1.5406
_WL2 = 1.54439
_WL3 = 1.39222
_WLRATIO = 0.5
_ANODE = Cu
_V4_INF_CREATOR = XRDWizard
_V4_INF_CREATOR_VERSION = V2.9.0.22
_V4_INF_WIZARD_VERSION = V2.9.0.22
_V4_INF_WIZARD_ADDINS = V2.9.0.22
_V4_INF_WIZARD_DOCTYPE = XRD
_V4_INF_OSUSER = McQueenLab
_V4_INF_USER = Administrator
_V4_INF_SITE = USA
_V4_INF_SAMPLEID = ML_20220721_39_SJD_0_LaB6-4min

; Data for range 1
_DRIVE = COUPLED
_STEPTIME = 11.28
_STEPSIZE = 0.0185756
_STEPMODE = C
_START = 5
_THETA = 2.5
_2THETA = 5
_KHI = 0
_PHI = 0
_X = 0
_Y = 0
_Z = 0
_DETECTOR = 5
; Detector type : Unknown
_DETECTORSLIT = unkn
_AUX1 = 0
_AUX2 = 0
_AUX3 = 0
_TIMESTARTED = 15
_TEMP_RATE = -1
_TEMP_DELAY = -1
_KV = 40
_MA = 40
_RANGE_WL = 1.5406
_3DPLANE = 0
_V4_ADDITIONALDETECTOR = 257
_V4_PSD2THETA = 3.3673
_V4_PSDCHANNEL1 = 0
_V4_PSDAPERTURE = 12.68
_V4_PSDTYPE = 5
_V4_PSDFIXED = 0
_V4_COUNTERS_MASK = 4096
_V4_DRIVES_MASK = 0
_V4_ENCODERS_MASK = 0
_2THETACOUNTS = 1
; 2THETA  PSD
   5.0000        248
   5.0186        257
   5.0372        253
   5.0557        242
   5.0743        251
   5.0929        270
   5.1115        285
   5.1300        256
   5.1486        239
   5.1672        240
   5.1858        268
   5.2043        265
   5.2229        235
   5.2415        238
   5.2601        242
   5.2786        239
   5.2972        219
   5.3158        247
   5.3344        255
   5.3529        251
   5.3715        220
   5.3901        265
   5.4087        235
   5.4272        251
   5.4458        230
   5.4644        238
   5.4830        237
   5.5015        210
   5.5201        221
   5.5387        239
   5.5573        217
   5.5758        238
   5.5944        223
   5.6130        234
   5.6316        239
   5.6501        221
   5.6687        187
   5.6873        236
   5.7059        213
   5.7244        225
   5.7430        214
   5.7616        231
   5.7802        238
   5.7988        211
   5.8173        214
   5.8359        216
   5.8545        207
   5.8731        213
   5.8916        201
   5.9102        185
   5.9288        206
   5.9474        225
   5.9659        192
   5.9845        220
   6.0031        234
   6.0217        182
   6.0402        212
   6.0588        192
   6.0774        178
   6.0960        171
   6.1145        214
   6.1331        208
   6.1517        188
   6.1703        219
   6.1888        184
   6.2074        171
   6.2260        187
   6.2446        186
   6.2631        203
   6.2817        181
   6.3003        181
   6.3189        172
   6.3374        165
   6.3560        174
   6.3746        190
   6.3932        177
   6.4117        177
   6.4303        185
   6.4489        197
   6.4675        196
   6.4860        177
   6.5046        183
   6.5232        165
   6.5418        166
   6.5604        166
   6.5789        182
   6.5975        160
   6.6161        174
   6.6347        187
   6.6532        181
   6.6718        185
   6.6904        181
   6.7090        170
   6.7275        187
   6.7461        177
   6.7647        165
   6.7833        191
   6.8018        182
   6.8204        171
   6.8390        155
   6.8576        179
   6.8761        181
   6.8947        178
   6.9133        158
   6.9319        155
   6.9504        160
   6.9690        182
   6.9876        173
   7.0062        174
   7.0247        162
   7.0433        159
   7.0619        176
   7.0805        174
   7.0990        169
   7.1176        167
   7.1362        187
   7.1548        169
   7.1733        136
   7.1919        133
   7.2105        162
   7.2291        156
   7.2476        138
   7.2662        171
   7.2848        136
   7.3034        141
   7.3220        175
   7.3405        144
   7.3591        164
   7.3777        149
   7.3963        149
   7.4148        172
   7.4334        176
   7.4520        160
   7.4706        183
   7.4891        142
   7.5077        173
   7.5263        198
   7.5449        164
   7.5634        167
   7.5820        190
   7.6006        176
   7.6192        177
   7.6377        163
   7.6563        179
   7.6749        180
   7.6935        168
   7.7120        185
   7.7306        180
   7.7492        186
   7.7678        184
   7.7863        178
   7.8049        183
   7.8235        180
   7.8421        198
   7.8606        170
   7.8792        200
   7.8978        178
   7.9164        203
   7.9349        205
   7.9535        183
   7.9721        187
   7.9907        202
   8.0092        195
   8.0278        178
   8.0464        188
   8.0650        204
   8.0835        197
   8.1021        201
   8.1207        191
   8.1393        211
   8.1579        177
   8.1764        231
   8.1950        195
   8.2136        203
   8.2322        194
   8.2507        196
   8.2693        180
   8.2879        202
   8.3065        176
   8.3250        186
   8.3436        188
   8.3622        191
   8.3808        205
   8.3993        186
   8.4179        209
   8.4365        176
   8.4551        202
   8.4736        190
   8.4922        203
   8.5108        195
   8.5294        228
   8.5479        204
   8.5665        229
   8.5851        196
   8.6037        207
   8.6222        198
   8.6408        208
   8.6594        209
   8.6780        212
   8.6965        226
   8.7151        221
   8.7337        208
   8.7523        193
   8.7708        215
   8.7894        177
   8.8080        201
   8.8266        241
   8.8451        210
   8.8637        214
   8.8823        220
   8.9009        188
   8.9195        208
   8.9380        216
   8.9566        214
   8.9752        227
   8.9938        195
   9.0123        209
   9.0309        211
   9.0495        203
   9.0681        202
   9.0866        213
   9.1052        215
   9.1238        204
   9.1424        214
   9.1609        243
   9.1795        200
   9.1981        235
   9.2167        229
   9.2352        215
   9.2538        186
   9.2724        215
   9.2910        226
   9.3095        210
   9.3281        227
   9.3467        220
   9.3653        222
   9.3838        218
   9.4024        207
   9.4210        218
   9.4396        231
   9.4581        208
   9.4767        246
   9.4953        226
   9.5139        251
   9.5324        207
   9.5510        213
   9.5696        218
   9.5882        230
   9.6067        198
   9.6253        237
   9.6439        244
   9.6625        242
   9.6811        223
   9.6996        244
   9.7182        213
   9.7368        248
   9.7554        236
   9.7739        246
   9.7925        212
   9.8111        218
   9.8297        233
   9.8482        226
   9.8668        250
   9.8854        286
   9.9040        226
   9.9225        280
   9.9411        218
   9.9597        250
   9.9783        255
   9.9968        243
  10.0154        218
  10.0340        239
  10.0526        263
  10.0711        222
  10.0897        229
  10.1083        231
  10.1269        253
  10.1454        247
  10.1640        212
  10.1826        245
  10.2012        229
  10.2197        260
  10.2383        245
  10.2569        260
  10.2755        247
  10.2940        235
  10.3126        229
  10.3312        234
  10.3498        242
  10.3683        239
  10.3869        241
  10.4055        275
  10.4241        247
  10.4427        247
  10.4612        256
  10.4798        245
  10.4984        234
  10.5170        264
  10.5355        229
  10.5541        249
  10.5727        233
  10.5913        256
  10.6098        259
  10.6284        236
  10.6470        245
  10.6656        290
  10.6841        232
  10.7027        244
  10.7213        203
  10.7399        255
  10.7584        269
  10.7770        237
  10.7956        231
  10.8142        264
  10.8327        219
  10.8513        241
  10.8699        286
  10.8885        251
  10.9070        269
  10.9256        270
  10.9442        247
  10.9628        245
  10.9813        247
  10.9999        219
  11.0185        228
  11.0371        228
  11.0556        243
  11.0742        215
  11.0928        212
  11.1114        264
  11.1299        254
  11.1485        240
  11.1671        240
  11.1857        258
  11.2043        272
  11.2228        228
  11.2414        260
  11.2600        246
  11.2786        257
  11.2971        224
  11.3157        242
  11.3343        256
  11.3529        250
  11.3714        239
  11.3900        226
  11.4086        222
  11.4272        235
  11.4457        248
  11.4643        269
  11.4829        246
  11.5015        262
  11.5200        208
  11.5386        246
  11.5572        195
  11.5758        265
  11.5943        237
  11.6129        230
  11.6315        236
  11.6501        232
  11.6686        230
  11.6872        217
  11.7058        234
  11.7244        223
  11.7429        251
  11.7615        243
  11.7801        235
  11.7987        238
  11.8172        205
  11.8358        227
  11.8544        216
  11.8730        226
  11.8915        215
  11.9101        235
  11.9287        241
  11.9473        249
  11.9659        259
  11.9844        242
  12.0030        227
  12.0216        228
  12.0402        232
  12.0587        219
  12.0773        254
  12.0959        233
  12.1145        231
  12.1330        220
  12.1516        245
  12.1702        227
  12.1888        231
  12.2073        205
  12.2259        227
  12.2445        205
  12.2631        215
  12.2816        213
  12.3002        219
  12.3188        233
  12.3374        235
  12.3559        239
  12.3745        238
  12.3931        221
  12.4117        238
  12.4302        205
  12.4488        214
  12.4674        219
  12.4860        181
  12.5045        237
  12.5231        209
  12.5417        210
  12.5603        201
  12.5788        235
  12.5974        220
  12.6160        217
  12.6346        209
  12.6531        214
  12.6717        215
  12.6903        215
  12.7089        230
  12.7274        254
  12.7460        235
  12.7646        198
  12.7832        226
  12.8018        231
  12.8203        232
  12.8389        217
  12.8575        199
  12.8761        206
  12.8946        199
  12.9132        215
  12.9318        211
  12.9504        202
  12.9689        228
  12.9875        215
  13.0061        209
  13.0247        198
  13.0432        212
  13.0618        213
  13.0804        210
  13.0990        229
  13.1175        214
  13.1361        231
  13.1547        198
  13.1733        221
  13.1918        229
  13.2104        190
  13.2290        195
  13.2476        220
  13.2661        194
  13.2847        223
  13.3033        197
  13.3219        194
  13.3404        215
  13.3590        198
  13.3776        193
  13.3962        184
  13.4147        198
  13.4333        172
  13.4519        192
  13.4705        199
  13.4890        191
  13.5076        216
  13.5262        179
  13.5448        200
  13.5634        179
  13.5819        207
  13.6005        208
  13.6191        188
  13.6377        201
  13.6562        201
  13.6748        191
  13.6934        205
  13.7120        188
  13.7305        181
  13.7491        189
  13.7677        176
  13.7863        185
  13.8048        173
  13.8234        179
  13.8420        205
  13.8606        203
  13.8791        186
  13.8977        205
  13.9163        184
  13.9349        201
  13.9534        187
  13.9720        172
  13.9906        190
  14.0092        196
  14.0277        198
  14.0463        155
  14.0649        169
  14.0835        218
  14.1020        171
  14.1206        163
  14.1392        172
  14.1578        183
  14.1763        196
  14.1949        173
  14.2135        174
  14.2321        144
  14.2506        185
  14.2692        174
  14.2878        191
  14.3064        174
  14.3250        166
  14.3435        178
  14.3621        188
  14.3807        195
  14.3993        162
  14.4178        204
  14.4364        174
  14.4550        174
  14.4736        186
  14.4921        188
  14.5107        177
  14.5293        184
  14.5479        169
  14.5664        155
  14.5850        157
  14.6036        170
  14.6222        166
  14.6407        162
  14.6593        156
  14.6779        161
  14.6965        169
  14.7150        171
  14.7336        169
  14.7522        166
  14.7708        189
  14.7893        171
  14.8079        160
  14.8265        167
  14.8451        171
  14.8636        177
  14.8822        156
  14.9008        173
  14.9194        176
  14.9379        170
  14.9565        175
  14.9751        185
  14.9937        186
  15.0122        172
  15.0308        169
  15.0494        159
  15.0680        173
  15.0866        158
  15.1051        163
  15.1237        177
  15.1423        189
  15.1609        156
  15.1794        146
  15.1980        159
  15.2166        159
  15.2352        167
  15.2537        164
  15.2723        158
  15.2909        157
  15.3095        156
  15.3280        151
  15.3466        154
  15.3652        191
  15.3838        153
  15.4023        170
  15.4209        178
  15.4395        178
  15.4581        178
  15.4766        157
  15.4952        165
  15.5138        152
  15.5324        160
  15.5509        159
  15.5695        142
  15.5881        151
  15.6067        166
  15.6252        160
  15.6438        181
  15.6624        173
  15.6810        159
  15.6995        151
  15.7181        186
  15.7367        139
  15.7553        153
  15.7738        146
  15.7924        169
  15.8110        159
  15.8296        149
  15.8482        164
  15.8667        170
  15.8853        168
  15.9039        166
  15.9225        187
  15.9410        174
  15.9596        156
  15.9782        171
  15.9968        179
  16.0153        159
  16.0339        161
  16.0525        159
  16.0711        171
  16.0896        189
  16.1082        154
  16.1268        155
  16.1454        166
  16.1639        152
  16.1825        162
  16.2011        166
  16.2197        150
  16.2382        171
  16.2568        172
  16.2754        154
  16.2940        168
  16.3125        160
  16.3311        171
  16.3497        183
  16.3683        187
  16.3868        162
  16.4054        180
  16.4240        155
  16.4426        156
  16.4611        153
  16.4797        183
  16.4983        148
  16.5169        174
  16.5354        144
  16.5540        171
  16.5726        178
  16.5912        160
  16.6097        189
  16.6283        178
  16.6469        154
  16.6655        164
  16.6841        158
  16.7026        150
  16.7212        182
  16.7398        147
  16.7584        168
  16.7769        168
  16.7955        145
  16.8141        158
  16.8327        145
  16.8512        158
  16.8698        161
  16.8884        154
  16.9070        167
  16.9255        171
  16.9441        161
  16.9627        174
  16.9813        174
  16.9998        151
  17.0184        136
  17.0370        177
  17.0556        159
  17.0741        131
  17.0927        180
  17.1113        151
  17.1299        158
  17.1484        196
  17.1670        143
  17.1856        152
  17.2042        142
  17.2227        149
  17.2413        151
  17.2599        171
  17.2785        144
  17.2970        153
  17.3156        144
  17.3342        151
  17.3528        162
  17.3713        171
  17.3899        166
  17.4085        156
  17.4271        144
  17.4457        176
  17.4642        158
  17.4828        149
  17.5014        125
  17.5200        153
  17.5385        150
  17.5571        176
  17.5757        162
  17.5943        150
  17.6128        156
  17.6314        156
  17.6500        187
  17.6686        175
  17.6871        170
  17.7057        166
  17.7243        203
  17.7429        161
  17.7614        158
  17.7800        151
  17.7986        148
  17.8172        183
  17.8357        152
  17.8543        183
  17.8729        174
  17.8915        157
  17.9100        151
  17.9286        172
  17.9472        176
  17.9658        170
  17.9843        163
  18.0029        155
  18.0215        137
  18.0401        167
  18.0586        147
  18.0772        172
  18.0958        171
  18.1144        186
  18.1329        168
  18.1515        159
  18.1701        171
  18.1887        152
  18.2073        167
  18.2258        162
  18.2444        178
  18.2630        176
  18.2816        155
  18.3001        156
  18.3187        161
  18.3373        161
  18.3559        188
  18.3744        175
  18.3930        173
  18.4116        158
  18.4302        167
  18.4487        175
  18.4673        171
  18.4859        165
  18.5045        156
  18.5230        165
  18.5416        178
  18.5602        172
  18.5788        178
  18.5973        173
  18.6159        179
  18.6345        181
  18.6531        172
  18.6716        186
  18.6902        155
  18.7088        167
  18.7274        158
  18.7459        161
  18.7645        184
  18.7831        171
  18.8017        170
  18.8202        190
  18.8388        166
  18.8574        178
  18.8760        164
  18.8945        173
  18.9131        150
  18.9317        156
  18.9503        172
  18.9689        173
  18.9874        157
  19.0060        175
  19.0246        170
  19.0432        167
  19.0617        195
  19.0803        168
  19.0989        166
  19.1175        180
  19.1360        174
  19.1546        172
  19.1732        166
  19.1918        191
  19.2103        196
  19.2289        170
  19.2475        178
  19.2661        169
  19.2846        180
  19.3032        164
  19.3218        163
  19.3404        147
  19.3589        161
  19.3775        173
  19.3961        176
  19.4147        160
  19.4332        149
  19.4518        151
  19.4704        168
  19.4890        187
  19.5075        185
  19.5261        183
  19.5447        182
  19.5633        184
  19.5818        179
  19.6004        178
  19.6190        150
  19.6376        172
  19.6561        169
  19.6747        178
  19.6933        189
  19.7119        185
  19.7305        184
  19.7490        167
  19.7676        169
  19.7862        201
  19.8048        181
  19.8233        184
  19.8419        196
  19.8605        156
  19.8791        187
  19.8976        168
  19.9162        195
  19.9348        213
  19.9534        163
  19.9719        181
  19.9905        178
  20.0091        156
  20.0277        192
  20.0462        168
  20.0648        157
  20.0834        153
  20.1020        176
  20.1205        190
  20.1391        179
  20.1577        193
  20.1763        174
  20.1948        169
  20.2134        181
  20.2320        188
  20.2506        166
  20.2691        166
  20.2877        191
  20.3063        194
  20.3249        182
  20.3434        194
  20.3620        186
  20.3806        180
  20.3992        180
  20.4177        174
  20.4363        159
  20.4549        202
  20.4735        179
