; (content of file Y:\Sam\Apurva-07-20-2022\puck2\ML_20220720_16_SJD_0_LaB6-1min.raw)
_FILEVERSION = 3
_SAMPLE = ML_20220720_16_SJD_0_LaB6-1mi
_+SAMPLE = 
_SITE = USA
_USER = Administrator
_GONIOMETER_CODE = 20
; Goniometer : D8 theta/2theta, stage : Unknown
_ATTACHMENTS_CODE = 0
_GONIOMETER_RADIUS = 200.5
_FIXED_DIVSLIT = 0.6
_FIXED_SAMPLESLIT = 0
_SOLLER_SLITS = 2
_FIXED_DETSLIT = 9.55
_MONOCHROMATOR = 0
; Incident beam monochromator : None
_SOLLER_SLITS_2 = N
_THIN_FILM = N
_BETA_FILTER = Y
_FIXED_ANTISLIT = 5.89
_ANALYZER_CODE = 0
; Received beam analyzer : None
_DATEMEASURED = "25-Jul-2022 18:16:10"
_WL_UNIT = A
_WL1 = 1.5406
_WL2 = 1.54439
_WL3 = 1.39222
_WLRATIO = 0.5
_ANODE = Cu
_V4_INF_CREATOR = XRDWizard
_V4_INF_CREATOR_VERSION = V2.9.0.22
_V4_INF_WIZARD_VERSION = V2.9.0.22
_V4_INF_WIZARD_ADDINS = V2.9.0.22
_V4_INF_WIZARD_DOCTYPE = XRD
_V4_INF_OSUSER = McQueenLab
_V4_INF_USER = Administrator
_V4_INF_SITE = USA
_V4_INF_SAMPLEID = ML_20220720_16_SJD_0_LaB6-1mi

; Data for range 1
_DRIVE = COUPLED
_STEPTIME = 4.23
_STEPSIZE = 0.0185756
_STEPMODE = C
_START = 5
_THETA = 2.5
_2THETA = 5
_KHI = 0
_PHI = 0
_X = 0
_Y = 0
_Z = 0
_DETECTOR = 5
; Detector type : Unknown
_DETECTORSLIT = unkn
_AUX1 = 0
_AUX2 = 0
_AUX3 = 0
_TIMESTARTED = 15
_TEMP_RATE = -1
_TEMP_DELAY = -1
_KV = 40
_MA = 40
_RANGE_WL = 1.5406
_3DPLANE = 0
_V4_ADDITIONALDETECTOR = 257
_V4_PSD2THETA = 3.3706
_V4_PSDCHANNEL1 = 0
_V4_PSDAPERTURE = 12.68
_V4_PSDTYPE = 5
_V4_PSDFIXED = 0
_V4_COUNTERS_MASK = 4096
_V4_DRIVES_MASK = 0
_V4_ENCODERS_MASK = 0
_2THETACOUNTS = 1
; 2THETA  PSD
   5.0000         90
   5.0186         88
   5.0372         89
   5.0557         89
   5.0743         92
   5.0929         99
   5.1115         97
   5.1300        106
   5.1486         98
   5.1672         85
   5.1858        106
   5.2043         84
   5.2229         95
   5.2415         88
   5.2601         79
   5.2786         72
   5.2972         87
   5.3158         93
   5.3344         84
   5.3529         83
   5.3715         84
   5.3901         86
   5.4087         86
   5.4272         73
   5.4458        104
   5.4644         93
   5.4830         65
   5.5015         93
   5.5201         90
   5.5387        106
   5.5573         85
   5.5758         81
   5.5944         79
   5.6130         71
   5.6316         76
   5.6501         75
   5.6687         71
   5.6873         71
   5.7059         93
   5.7244         88
   5.7430         82
   5.7616         85
   5.7802         89
   5.7988         77
   5.8173         74
   5.8359         81
   5.8545         70
   5.8731         75
   5.8916         88
   5.9102         71
   5.9288         73
   5.9474         71
   5.9659         81
   5.9845         77
   6.0031         67
   6.0217         84
   6.0402         74
   6.0588         70
   6.0774         83
   6.0960         90
   6.1145         61
   6.1331         81
   6.1517         81
   6.1703         65
   6.1888         61
   6.2074         69
   6.2260         62
   6.2446         69
   6.2631         80
   6.2817         62
   6.3003         59
   6.3189         69
   6.3374         73
   6.3560         71
   6.3746         65
   6.3932         64
   6.4117         58
   6.4303         78
   6.4489         64
   6.4675         70
   6.4860         67
   6.5046         52
   6.5232         66
   6.5418         70
   6.5604         68
   6.5789         71
   6.5975         68
   6.6161         65
   6.6347         86
   6.6532         47
   6.6718         48
   6.6904         59
   6.7090         76
   6.7275         58
   6.7461         66
   6.7647         57
   6.7833         60
   6.8018         56
   6.8204         62
   6.8390         72
   6.8576         62
   6.8761         51
   6.8947         56
   6.9133         71
   6.9319         47
   6.9504         55
   6.9690         60
   6.9876         46
   7.0062         58
   7.0247         57
   7.0433         49
   7.0619         65
   7.0805         56
   7.0990         54
   7.1176         54
   7.1362         67
   7.1548         54
   7.1733         62
   7.1919         53
   7.2105         64
   7.2291         61
   7.2476         64
   7.2662         62
   7.2848         67
   7.3034         56
   7.3220         75
   7.3405         60
   7.3591         44
   7.3777         57
   7.3963         57
   7.4148         63
   7.4334         64
   7.4520         46
   7.4706         49
   7.4891         55
   7.5077         56
   7.5263         67
   7.5449         70
   7.5634         71
   7.5820         74
   7.6006         62
   7.6192         48
   7.6377         53
   7.6563         61
   7.6749         69
   7.6935         63
   7.7120         59
   7.7306         76
   7.7492         85
   7.7678         72
   7.7863         72
   7.8049         74
   7.8235         66
   7.8421         51
   7.8606         71
   7.8792         71
   7.8978         63
   7.9164         68
   7.9349         52
   7.9535         76
   7.9721         64
   7.9907         52
   8.0092         64
   8.0278         64
   8.0464         65
   8.0650         66
   8.0835         55
   8.1021         67
   8.1207         82
   8.1393         79
   8.1579         77
   8.1764         70
   8.1950         79
   8.2136         64
   8.2322         73
   8.2507         74
   8.2693         87
   8.2879         71
   8.3065         61
   8.3250         77
   8.3436         69
   8.3622         65
   8.3808         75
   8.3993         61
   8.4179         77
   8.4365         63
   8.4551         70
   8.4736         72
   8.4922         67
   8.5108         75
   8.5294         76
   8.5479         80
   8.5665         75
   8.5851         67
   8.6037         73
   8.6222         74
   8.6408         69
   8.6594         97
   8.6780         76
   8.6965         69
   8.7151         83
   8.7337         75
   8.7523         84
   8.7708         70
   8.7894         57
   8.8080         72
   8.8266         72
   8.8451         78
   8.8637         82
   8.8823         76
   8.9009         67
   8.9195         67
   8.9380         80
   8.9566         70
   8.9752         74
   8.9938         74
   9.0123         81
   9.0309         68
   9.0495        101
   9.0681         88
   9.0866         96
   9.1052         90
   9.1238         83
   9.1424         85
   9.1609         79
   9.1795         90
   9.1981         85
   9.2167         62
   9.2352         74
   9.2538         88
   9.2724         93
   9.2910         81
   9.3095         78
   9.3281         87
   9.3467         71
   9.3653         70
   9.3838         74
   9.4024         84
   9.4210         81
   9.4396         77
   9.4581         64
   9.4767         93
   9.4953         76
   9.5139         80
   9.5324         98
   9.5510         84
   9.5696         94
   9.5882         87
   9.6067         77
   9.6253        101
   9.6439         81
   9.6625         65
   9.6811         95
   9.6996         84
   9.7182         82
   9.7368         84
   9.7554         92
   9.7739         90
   9.7925        101
   9.8111         86
   9.8297        105
   9.8482         77
   9.8668         90
   9.8854         85
   9.9040         97
   9.9225         92
   9.9411         88
   9.9597         77
   9.9783         92
   9.9968         76
  10.0154         92
  10.0340         86
  10.0526         99
  10.0711         82
  10.0897         75
  10.1083        108
  10.1269         95
  10.1454        101
  10.1640         87
  10.1826         82
  10.2012        106
  10.2197         85
  10.2383        105
  10.2569         92
  10.2755         94
  10.2940         85
  10.3126         89
  10.3312        100
  10.3498         85
  10.3683        107
  10.3869         83
  10.4055         79
  10.4241         82
  10.4427         79
  10.4612         93
  10.4798        102
  10.4984         88
  10.5170         95
  10.5355         90
  10.5541         87
  10.5727        113
  10.5913         92
  10.6098         87
  10.6284         91
  10.6470         89
  10.6656         97
  10.6841        101
  10.7027         84
  10.7213         76
  10.7399         80
  10.7584        105
  10.7770         94
  10.7956        113
  10.8142         91
  10.8327        104
  10.8513         83
  10.8699         83
  10.8885         91
  10.9070         63
  10.9256         87
  10.9442         73
  10.9628         91
  10.9813         87
  10.9999         82
  11.0185         93
  11.0371         89
  11.0556         84
  11.0742         94
  11.0928         80
  11.1114         96
  11.1299         88
  11.1485         86
  11.1671         79
  11.1857         89
  11.2043         87
  11.2228         87
  11.2414         92
  11.2600         92
  11.2786         86
  11.2971        100
  11.3157         78
  11.3343         98
  11.3529         74
  11.3714         87
  11.3900         75
  11.4086         93
  11.4272         98
  11.4457         76
  11.4643         77
  11.4829         89
  11.5015         71
  11.5200        114
  11.5386        100
  11.5572         70
  11.5758        114
  11.5943         70
  11.6129         77
  11.6315         94
  11.6501        108
  11.6686        103
  11.6872         71
  11.7058         85
  11.7244        104
  11.7429         95
  11.7615        101
  11.7801         85
  11.7987         86
  11.8172         74
  11.8358         89
  11.8544         83
  11.8730         86
  11.8915         76
  11.9101        104
  11.9287         85
  11.9473         88
  11.9659         94
  11.9844         63
  12.0030         99
  12.0216         79
  12.0402         68
  12.0587         75
  12.0773         72
  12.0959         86
  12.1145         81
  12.1330         68
  12.1516         95
  12.1702         79
  12.1888         80
  12.2073         77
  12.2259         83
  12.2445         77
  12.2631         75
  12.2816         70
  12.3002         85
  12.3188         91
  12.3374         88
  12.3559         74
  12.3745         88
  12.3931         58
  12.4117         73
  12.4302         74
  12.4488         84
  12.4674         95
  12.4860         75
  12.5045         90
  12.5231         77
  12.5417         81
  12.5603         75
  12.5788         81
  12.5974         62
  12.6160         80
  12.6346         93
  12.6531         71
  12.6717         78
  12.6903         85
  12.7089         75
  12.7274         83
  12.7460         96
  12.7646         76
  12.7832         91
  12.8018         77
  12.8203         74
  12.8389         74
  12.8575         90
  12.8761         87
  12.8946         63
  12.9132         70
  12.9318         72
  12.9504         48
  12.9689         90
  12.9875         60
  13.0061         86
  13.0247         62
  13.0432         66
  13.0618         96
  13.0804         71
  13.0990         90
  13.1175         73
  13.1361         67
  13.1547         68
  13.1733         57
  13.1918         79
  13.2104         79
  13.2290         77
  13.2476         74
  13.2661         84
  13.2847         75
  13.3033         62
  13.3219         67
  13.3404         79
  13.3590         79
  13.3776         58
  13.3962         78
  13.4147         69
  13.4333         68
  13.4519         65
  13.4705         65
  13.4890         71
  13.5076         84
  13.5262         71
  13.5448         79
  13.5634         80
  13.5819         68
  13.6005         74
  13.6191         81
  13.6377         63
  13.6562         66
  13.6748         64
  13.6934         73
  13.7120         73
  13.7305         63
  13.7491         56
  13.7677         66
  13.7863         80
  13.8048         78
  13.8234         75
  13.8420         55
  13.8606         67
  13.8791         69
  13.8977         63
  13.9163         66
  13.9349         62
  13.9534         68
  13.9720         68
  13.9906         69
  14.0092         74
  14.0277         65
  14.0463         67
  14.0649         74
  14.0835         72
  14.1020         72
  14.1206         56
  14.1392         69
  14.1578         77
  14.1763         68
  14.1949         58
  14.2135         74
  14.2321         83
  14.2506         63
  14.2692         65
  14.2878         69
  14.3064         56
  14.3250         63
  14.3435         73
  14.3621         61
  14.3807         76
  14.3993         71
  14.4178         66
  14.4364         73
  14.4550         72
  14.4736         60
  14.4921         68
  14.5107         66
  14.5293         57
  14.5479         59
  14.5664         72
  14.5850         63
  14.6036         63
  14.6222         58
  14.6407         58
  14.6593         74
  14.6779         52
  14.6965         55
  14.7150         64
  14.7336         55
  14.7522         71
  14.7708         58
  14.7893         70
  14.8079         53
  14.8265         71
  14.8451         67
  14.8636         62
  14.8822         66
  14.9008         70
  14.9194         51
  14.9379         59
  14.9565         70
  14.9751         64
  14.9937         67
  15.0122         62
  15.0308         55
  15.0494         63
  15.0680         61
  15.0866         64
  15.1051         63
  15.1237         64
  15.1423         61
  15.1609         68
  15.1794         60
  15.1980         56
  15.2166         49
  15.2352         57
  15.2537         60
  15.2723         60
  15.2909         55
  15.3095         56
  15.3280         67
  15.3466         68
  15.3652         61
  15.3838         56
  15.4023         56
  15.4209         72
  15.4395         80
  15.4581         66
  15.4766         59
  15.4952         59
  15.5138         63
  15.5324         66
  15.5509         60
  15.5695         59
  15.5881         51
  15.6067         51
  15.6252         40
  15.6438         44
  15.6624         71
  15.6810         53
  15.6995         59
  15.7181         57
  15.7367         49
  15.7553         51
  15.7738         56
  15.7924         66
  15.8110         66
  15.8296         65
  15.8482         68
  15.8667         65
  15.8853         57
  15.9039         73
  15.9225         54
  15.9410         58
  15.9596         50
  15.9782         53
  15.9968         45
  16.0153         57
  16.0339         70
  16.0525         63
  16.0711         60
  16.0896         58
  16.1082         69
  16.1268         51
  16.1454         56
  16.1639         63
  16.1825         69
  16.2011         63
  16.2197         67
  16.2382         54
  16.2568         57
  16.2754         46
  16.2940         56
  16.3125         52
  16.3311         62
  16.3497         51
  16.3683         62
  16.3868         57
  16.4054         65
  16.4240         49
  16.4426         60
  16.4611         74
  16.4797         59
  16.4983         48
  16.5169         53
  16.5354         59
  16.5540         58
  16.5726         76
  16.5912         46
  16.6097         39
  16.6283         57
  16.6469         72
  16.6655         56
  16.6841         54
  16.7026         57
  16.7212         59
  16.7398         50
  16.7584         52
  16.7769         53
  16.7955         73
  16.8141         59
  16.8327         47
  16.8512         55
  16.8698         64
  16.8884         51
  16.9070         48
  16.9255         64
  16.9441         60
  16.9627         53
  16.9813         50
  16.9998         48
  17.0184         77
  17.0370         60
  17.0556         74
  17.0741         57
  17.0927         54
  17.1113         64
  17.1299         56
  17.1484         60
  17.1670         62
  17.1856         48
  17.2042         76
  17.2227         65
  17.2413         50
  17.2599         69
  17.2785         59
  17.2970         62
  17.3156         53
  17.3342         67
  17.3528         64
  17.3713         58
  17.3899         59
  17.4085         64
  17.4271         65
  17.4457         65
  17.4642         68
  17.4828         57
  17.5014         60
  17.5200         59
  17.5385         54
  17.5571         54
  17.5757         59
  17.5943         64
  17.6128         59
  17.6314         53
  17.6500         59
  17.6686         65
  17.6871         81
  17.7057         57
  17.7243         65
  17.7429         49
  17.7614         57
  17.7800         60
  17.7986         58
  17.8172         54
  17.8357         56
  17.8543         68
  17.8729         53
  17.8915         70
  17.9100         53
  17.9286         65
  17.9472         54
  17.9658         57
  17.9843         62
  18.0029         63
  18.0215         68
  18.0401         48
  18.0586         68
  18.0772         65
  18.0958         72
  18.1144         85
  18.1329         53
  18.1515         62
  18.1701         71
  18.1887         64
  18.2073         51
  18.2258         47
  18.2444         53
  18.2630         63
  18.2816         61
  18.3001         52
  18.3187         52
  18.3373         53
  18.3559         70
  18.3744         49
  18.3930         57
  18.4116         47
  18.4302         71
  18.4487         54
  18.4673         78
  18.4859         56
  18.5045         52
  18.5230         66
  18.5416         53
  18.5602         72
  18.5788         61
  18.5973         56
  18.6159         58
  18.6345         67
  18.6531         58
  18.6716         51
  18.6902         58
  18.7088         63
  18.7274         64
  18.7459         46
  18.7645         62
  18.7831         55
  18.8017         54
  18.8202         65
  18.8388         69
  18.8574         56
  18.8760         60
  18.8945         61
  18.9131         64
  18.9317         47
  18.9503         50
  18.9689         66
  18.9874         57
  19.0060         60
  19.0246         57
  19.0432         56
  19.0617         62
  19.0803         65
  19.0989         69
  19.1175         65
  19.1360         76
  19.1546         58
  19.1732         58
  19.1918         66
  19.2103         77
  19.2289         58
  19.2475         71
  19.2661         68
  19.2846         64
  19.3032         56
  19.3218         52
  19.3404         73
  19.3589         51
  19.3775         57
  19.3961         62
  19.4147         71
  19.4332         66
  19.4518         59
  19.4704         54
  19.4890         55
  19.5075         57
  19.5261         64
  19.5447         70
  19.5633         58
  19.5818         51
  19.6004         58
  19.6190         56
  19.6376         59
  19.6561         60
  19.6747         68
  19.6933         73
  19.7119         78
  19.7305         66
  19.7490         70
  19.7676         70
  19.7862         75
  19.8048         55
  19.8233         65
  19.8419         54
  19.8605         61
  19.8791         61
  19.8976         76
  19.9162         67
  19.9348         56
  19.9534         65
  19.9719         60
  19.9905         51
  20.0091         56
  20.0277         67
  20.0462         64
  20.0648         50
  20.0834         66
  20.1020         62
  20.1205         67
  20.1391         57
  20.1577         60
  20.1763         67
  20.1948         60
  20.2134         63
  20.2320         58
  20.2506         57
  20.2691         80
  20.2877         81
  20.3063         56
  20.3249         67
  20.3434         66
  20.3620         69
  20.3806         60
  20.3992         64
  20.4177         68
  20.4363         79
  20.4549         68
  20.4735         76
