; (content of file Y:\Sam\Apurva-07-20-2022\puck1\ML_20220721_23_SJD_0_LaB6-4min.raw)
_FILEVERSION = 3
_SAMPLE = ML_20220721_23_SJD_0_LaB6-4min
_+SAMPLE = 
_SITE = USA
_USER = Administrator
_GONIOMETER_CODE = 20
; Goniometer : D8 theta/2theta, stage : Unknown
_ATTACHMENTS_CODE = 0
_GONIOMETER_RADIUS = 200.5
_FIXED_DIVSLIT = 0.6
_FIXED_SAMPLESLIT = 0
_SOLLER_SLITS = 2
_FIXED_DETSLIT = 9.55
_MONOCHROMATOR = 0
; Incident beam monochromator : None
_SOLLER_SLITS_2 = N
_THIN_FILM = N
_BETA_FILTER = Y
_FIXED_ANTISLIT = 5.89
_ANALYZER_CODE = 0
; Received beam analyzer : None
_DATEMEASURED = "25-Jul-2022 15:35:39"
_WL_UNIT = A
_WL1 = 1.5406
_WL2 = 1.54439
_WL3 = 1.39222
_WLRATIO = 0.5
_ANODE = Cu
_V4_INF_CREATOR = XRDWizard
_V4_INF_CREATOR_VERSION = V2.9.0.22
_V4_INF_WIZARD_VERSION = V2.9.0.22
_V4_INF_WIZARD_ADDINS = V2.9.0.22
_V4_INF_WIZARD_DOCTYPE = XRD
_V4_INF_OSUSER = McQueenLab
_V4_INF_USER = Administrator
_V4_INF_SITE = USA
_V4_INF_SAMPLEID = ML_20220721_23_SJD_0_LaB6-4min

; Data for range 1
_DRIVE = COUPLED
_STEPTIME = 11.28
_STEPSIZE = 0.0185756
_STEPMODE = C
_START = 5
_THETA = 2.5
_2THETA = 5
_KHI = 0
_PHI = 0
_X = 0
_Y = 0
_Z = 0
_DETECTOR = 5
; Detector type : Unknown
_DETECTORSLIT = unkn
_AUX1 = 0
_AUX2 = 0
_AUX3 = 0
_TIMESTARTED = 15
_TEMP_RATE = -1
_TEMP_DELAY = -1
_KV = 40
_MA = 40
_RANGE_WL = 1.5406
_3DPLANE = 0
_V4_ADDITIONALDETECTOR = 257
_V4_PSD2THETA = 3.365
_V4_PSDCHANNEL1 = 0
_V4_PSDAPERTURE = 12.68
_V4_PSDTYPE = 5
_V4_PSDFIXED = 0
_V4_COUNTERS_MASK = 4096
_V4_DRIVES_MASK = 0
_V4_ENCODERS_MASK = 0
_2THETACOUNTS = 1
; 2THETA  PSD
   5.0000        286
   5.0186        269
   5.0372        251
   5.0557        269
   5.0743        277
   5.0929        279
   5.1115        238
   5.1300        242
   5.1486        232
   5.1672        245
   5.1858        277
   5.2043        236
   5.2229        229
   5.2415        225
   5.2601        237
   5.2786        281
   5.2972        243
   5.3158        203
   5.3344        225
   5.3529        225
   5.3715        215
   5.3901        215
   5.4087        238
   5.4272        238
   5.4458        237
   5.4644        257
   5.4830        239
   5.5015        233
   5.5201        231
   5.5387        233
   5.5573        253
   5.5758        232
   5.5944        220
   5.6130        218
   5.6316        239
   5.6501        229
   5.6687        217
   5.6873        223
   5.7059        230
   5.7244        222
   5.7430        226
   5.7616        201
   5.7802        226
   5.7988        189
   5.8173        183
   5.8359        197
   5.8545        233
   5.8731        179
   5.8916        208
   5.9102        202
   5.9288        219
   5.9474        224
   5.9659        206
   5.9845        218
   6.0031        196
   6.0217        213
   6.0402        193
   6.0588        181
   6.0774        179
   6.0960        185
   6.1145        199
   6.1331        181
   6.1517        181
   6.1703        231
   6.1888        187
   6.2074        192
   6.2260        208
   6.2446        207
   6.2631        171
   6.2817        177
   6.3003        196
   6.3189        186
   6.3374        177
   6.3560        200
   6.3746        200
   6.3932        175
   6.4117        192
   6.4303        165
   6.4489        172
   6.4675        166
   6.4860        172
   6.5046        169
   6.5232        178
   6.5418        172
   6.5604        168
   6.5789        180
   6.5975        156
   6.6161        148
   6.6347        149
   6.6532        174
   6.6718        176
   6.6904        168
   6.7090        191
   6.7275        158
   6.7461        176
   6.7647        165
   6.7833        174
   6.8018        161
   6.8204        167
   6.8390        193
   6.8576        154
   6.8761        175
   6.8947        193
   6.9133        177
   6.9319        144
   6.9504        170
   6.9690        166
   6.9876        193
   7.0062        168
   7.0247        166
   7.0433        167
   7.0619        172
   7.0805        163
   7.0990        160
   7.1176        149
   7.1362        185
   7.1548        171
   7.1733        157
   7.1919        169
   7.2105        151
   7.2291        186
   7.2476        141
   7.2662        121
   7.2848        160
   7.3034        152
   7.3220        163
   7.3405        167
   7.3591        165
   7.3777        168
   7.3963        191
   7.4148        186
   7.4334        168
   7.4520        173
   7.4706        185
   7.4891        160
   7.5077        163
   7.5263        173
   7.5449        178
   7.5634        174
   7.5820        162
   7.6006        150
   7.6192        167
   7.6377        184
   7.6563        150
   7.6749        162
   7.6935        171
   7.7120        177
   7.7306        173
   7.7492        166
   7.7678        195
   7.7863        173
   7.8049        198
   7.8235        186
   7.8421        185
   7.8606        172
   7.8792        170
   7.8978        205
   7.9164        198
   7.9349        205
   7.9535        209
   7.9721        197
   7.9907        184
   8.0092        167
   8.0278        191
   8.0464        168
   8.0650        179
   8.0835        187
   8.1021        165
   8.1207        181
   8.1393        205
   8.1579        208
   8.1764        188
   8.1950        185
   8.2136        167
   8.2322        183
   8.2507        189
   8.2693        190
   8.2879        176
   8.3065        181
   8.3250        210
   8.3436        190
   8.3622        245
   8.3808        195
   8.3993        218
   8.4179        223
   8.4365        190
   8.4551        197
   8.4736        212
   8.4922        207
   8.5108        216
   8.5294        176
   8.5479        196
   8.5665        205
   8.5851        202
   8.6037        182
   8.6222        215
   8.6408        210
   8.6594        212
   8.6780        227
   8.6965        201
   8.7151        208
   8.7337        222
   8.7523        229
   8.7708        193
   8.7894        194
   8.8080        197
   8.8266        207
   8.8451        221
   8.8637        222
   8.8823        204
   8.9009        215
   8.9195        210
   8.9380        193
   8.9566        200
   8.9752        211
   8.9938        217
   9.0123        237
   9.0309        205
   9.0495        213
   9.0681        225
   9.0866        229
   9.1052        211
   9.1238        209
   9.1424        218
   9.1609        231
   9.1795        254
   9.1981        223
   9.2167        227
   9.2352        225
   9.2538        216
   9.2724        220
   9.2910        217
   9.3095        221
   9.3281        226
   9.3467        229
   9.3653        230
   9.3838        197
   9.4024        224
   9.4210        229
   9.4396        220
   9.4581        234
   9.4767        209
   9.4953        239
   9.5139        227
   9.5324        211
   9.5510        227
   9.5696        198
   9.5882        236
   9.6067        255
   9.6253        218
   9.6439        236
   9.6625        261
   9.6811        216
   9.6996        219
   9.7182        240
   9.7368        246
   9.7554        239
   9.7739        221
   9.7925        257
   9.8111        263
   9.8297        239
   9.8482        287
   9.8668        236
   9.8854        191
   9.9040        253
   9.9225        240
   9.9411        249
   9.9597        229
   9.9783        278
   9.9968        245
  10.0154        227
  10.0340        220
  10.0526        248
  10.0711        220
  10.0897        240
  10.1083        231
  10.1269        240
  10.1454        250
  10.1640        267
  10.1826        256
  10.2012        239
  10.2197        257
  10.2383        247
  10.2569        266
  10.2755        249
  10.2940        238
  10.3126        268
  10.3312        255
  10.3498        222
  10.3683        237
  10.3869        240
  10.4055        224
  10.4241        242
  10.4427        267
  10.4612        235
  10.4798        275
  10.4984        253
  10.5170        255
  10.5355        253
  10.5541        260
  10.5727        244
  10.5913        249
  10.6098        236
  10.6284        247
  10.6470        253
  10.6656        229
  10.6841        252
  10.7027        247
  10.7213        252
  10.7399        250
  10.7584        238
  10.7770        231
  10.7956        250
  10.8142        242
  10.8327        246
  10.8513        252
  10.8699        227
  10.8885        246
  10.9070        242
  10.9256        262
  10.9442        226
  10.9628        227
  10.9813        251
  10.9999        278
  11.0185        255
  11.0371        227
  11.0556        241
  11.0742        248
  11.0928        222
  11.1114        248
  11.1299        233
  11.1485        228
  11.1671        239
  11.1857        257
  11.2043        247
  11.2228        253
  11.2414        235
  11.2600        249
  11.2786        225
  11.2971        254
  11.3157        256
  11.3343        249
  11.3529        238
  11.3714        226
  11.3900        239
  11.4086        260
  11.4272        261
  11.4457        258
  11.4643        245
  11.4829        244
  11.5015        239
  11.5200        236
  11.5386        239
  11.5572        235
  11.5758        236
  11.5943        242
  11.6129        249
  11.6315        238
  11.6501        253
  11.6686        247
  11.6872        250
  11.7058        226
  11.7244        226
  11.7429        246
  11.7615        252
  11.7801        225
  11.7987        244
  11.8172        233
  11.8358        230
  11.8544        214
  11.8730        240
  11.8915        220
  11.9101        220
  11.9287        256
  11.9473        241
  11.9659        243
  11.9844        214
  12.0030        228
  12.0216        249
  12.0402        257
  12.0587        238
  12.0773        220
  12.0959        225
  12.1145        234
  12.1330        231
  12.1516        216
  12.1702        241
  12.1888        226
  12.2073        232
  12.2259        219
  12.2445        224
  12.2631        200
  12.2816        272
  12.3002        207
  12.3188        208
  12.3374        239
  12.3559        226
  12.3745        221
  12.3931        242
  12.4117        204
  12.4302        194
  12.4488        216
  12.4674        220
  12.4860        230
  12.5045        223
  12.5231        198
  12.5417        231
  12.5603        225
  12.5788        217
  12.5974        202
  12.6160        211
  12.6346        184
  12.6531        209
  12.6717        199
  12.6903        179
  12.7089        214
  12.7274        200
  12.7460        207
  12.7646        223
  12.7832        213
  12.8018        237
  12.8203        232
  12.8389        213
  12.8575        218
  12.8761        190
  12.8946        215
  12.9132        222
  12.9318        206
  12.9504        211
  12.9689        200
  12.9875        222
  13.0061        219
  13.0247        223
  13.0432        197
  13.0618        197
  13.0804        200
  13.0990        216
  13.1175        201
  13.1361        212
  13.1547        221
  13.1733        209
  13.1918        203
  13.2104        192
  13.2290        190
  13.2476        206
  13.2661        180
  13.2847        206
  13.3033        188
  13.3219        181
  13.3404        182
  13.3590        236
  13.3776        216
  13.3962        208
  13.4147        207
  13.4333        182
  13.4519        217
  13.4705        192
  13.4890        215
  13.5076        202
  13.5262        222
  13.5448        183
  13.5634        194
  13.5819        203
  13.6005        195
  13.6191        170
  13.6377        211
  13.6562        181
  13.6748        198
  13.6934        198
  13.7120        190
  13.7305        167
  13.7491        186
  13.7677        215
  13.7863        178
  13.8048        208
  13.8234        213
  13.8420        186
  13.8606        170
  13.8791        178
  13.8977        183
  13.9163        193
  13.9349        188
  13.9534        195
  13.9720        169
  13.9906        176
  14.0092        178
  14.0277        187
  14.0463        188
  14.0649        196
  14.0835        200
  14.1020        177
  14.1206        197
  14.1392        179
  14.1578        198
  14.1763        190
  14.1949        182
  14.2135        161
  14.2321        195
  14.2506        206
  14.2692        180
  14.2878        188
  14.3064        190
  14.3250        168
  14.3435        187
  14.3621        168
  14.3807        182
  14.3993        183
  14.4178        177
  14.4364        184
  14.4550        182
  14.4736        185
  14.4921        180
  14.5107        156
  14.5293        183
  14.5479        170
  14.5664        198
  14.5850        174
  14.6036        178
  14.6222        159
  14.6407        170
  14.6593        161
  14.6779        170
  14.6965        174
  14.7150        200
  14.7336        171
  14.7522        183
  14.7708        161
  14.7893        163
  14.8079        183
  14.8265        168
  14.8451        172
  14.8636        171
  14.8822        162
  14.9008        171
  14.9194        160
  14.9379        181
  14.9565        166
  14.9751        150
  14.9937        173
  15.0122        163
  15.0308        149
  15.0494        156
  15.0680        168
  15.0866        171
  15.1051        185
  15.1237        182
  15.1423        169
  15.1609        200
  15.1794        173
  15.1980        196
  15.2166        156
  15.2352        173
  15.2537        162
  15.2723        182
  15.2909        173
  15.3095        183
  15.3280        186
  15.3466        178
  15.3652        158
  15.3838        168
  15.4023        161
  15.4209        164
  15.4395        172
  15.4581        172
  15.4766        178
  15.4952        159
  15.5138        139
  15.5324        142
  15.5509        201
  15.5695        181
  15.5881        190
  15.6067        171
  15.6252        173
  15.6438        178
  15.6624        192
  15.6810        161
  15.6995        162
  15.7181        177
  15.7367        167
  15.7553        205
  15.7738        174
  15.7924        171
  15.8110        199
  15.8296        173
  15.8482        163
  15.8667        188
  15.8853        163
  15.9039        173
  15.9225        187
  15.9410        178
  15.9596        164
  15.9782        167
  15.9968        147
  16.0153        171
  16.0339        163
  16.0525        178
  16.0711        141
  16.0896        160
  16.1082        168
  16.1268        129
  16.1454        160
  16.1639        159
  16.1825        158
  16.2011        162
  16.2197        165
  16.2382        180
  16.2568        160
  16.2754        157
  16.2940        174
  16.3125        171
  16.3311        144
  16.3497        156
  16.3683        191
  16.3868        155
  16.4054        164
  16.4240        157
  16.4426        156
  16.4611        171
  16.4797        178
  16.4983        150
  16.5169        192
  16.5354        174
  16.5540        165
  16.5726        141
  16.5912        170
  16.6097        175
  16.6283        174
  16.6469        143
  16.6655        181
  16.6841        153
  16.7026        147
  16.7212        158
  16.7398        180
  16.7584        171
  16.7769        173
  16.7955        159
  16.8141        158
  16.8327        173
  16.8512        156
  16.8698        185
  16.8884        169
  16.9070        177
  16.9255        146
  16.9441        166
  16.9627        155
  16.9813        190
  16.9998        190
  17.0184        182
  17.0370        166
  17.0556        162
  17.0741        149
  17.0927        157
  17.1113        166
  17.1299        160
  17.1484        182
  17.1670        151
  17.1856        154
  17.2042        145
  17.2227        158
  17.2413        147
  17.2599        173
  17.2785        178
  17.2970        159
  17.3156        172
  17.3342        156
  17.3528        164
  17.3713        177
  17.3899        193
  17.4085        161
  17.4271        192
  17.4457        188
  17.4642        151
  17.4828        133
  17.5014        155
  17.5200        141
  17.5385        161
  17.5571        148
  17.5757        187
  17.5943        151
  17.6128        172
  17.6314        176
  17.6500        156
  17.6686        148
  17.6871        167
  17.7057        199
  17.7243        137
  17.7429        153
  17.7614        176
  17.7800        169
  17.7986        155
  17.8172        167
  17.8357        179
  17.8543        172
  17.8729        196
  17.8915        131
  17.9100        175
  17.9286        174
  17.9472        174
  17.9658        169
  17.9843        159
  18.0029        173
  18.0215        179
  18.0401        136
  18.0586        150
  18.0772        171
  18.0958        180
  18.1144        144
  18.1329        163
  18.1515        179
  18.1701        146
  18.1887        151
  18.2073        153
  18.2258        170
  18.2444        170
  18.2630        162
  18.2816        145
  18.3001        169
  18.3187        165
  18.3373        173
  18.3559        173
  18.3744        161
  18.3930        146
  18.4116        156
  18.4302        168
  18.4487        188
  18.4673        136
  18.4859        160
  18.5045        169
  18.5230        172
  18.5416        172
  18.5602        182
  18.5788        170
  18.5973        180
  18.6159        172
  18.6345        176
  18.6531        164
  18.6716        177
  18.6902        151
  18.7088        148
  18.7274        161
  18.7459        159
  18.7645        173
  18.7831        170
  18.8017        170
  18.8202        179
  18.8388        181
  18.8574        190
  18.8760        172
  18.8945        171
  18.9131        183
  18.9317        179
  18.9503        179
  18.9689        169
  18.9874        157
  19.0060        164
  19.0246        168
  19.0432        185
  19.0617        182
  19.0803        176
  19.0989        182
  19.1175        173
  19.1360        164
  19.1546        188
  19.1732        168
  19.1918        193
  19.2103        176
  19.2289        181
  19.2475        180
  19.2661        196
  19.2846        195
  19.3032        159
  19.3218        179
  19.3404        173
  19.3589        165
  19.3775        173
  19.3961        169
  19.4147        178
  19.4332        172
  19.4518        182
  19.4704        203
  19.4890        172
  19.5075        171
  19.5261        177
  19.5447        172
  19.5633        183
  19.5818        183
  19.6004        163
  19.6190        165
  19.6376        164
  19.6561        145
  19.6747        179
  19.6933        166
  19.7119        193
  19.7305        181
  19.7490        190
  19.7676        183
  19.7862        200
  19.8048        186
  19.8233        203
  19.8419        171
  19.8605        176
  19.8791        180
  19.8976        193
  19.9162        175
  19.9348        177
  19.9534        197
  19.9719        166
  19.9905        194
  20.0091        171
  20.0277        181
  20.0462        183
  20.0648        201
  20.0834        191
  20.1020        186
  20.1205        182
  20.1391        202
  20.1577        172
  20.1763        186
  20.1948        191
  20.2134        208
  20.2320        183
  20.2506        203
  20.2691        190
  20.2877        192
  20.3063        202
  20.3249        170
  20.3434        186
  20.3620        185
  20.3806        178
  20.3992        186
  20.4177        197
  20.4363        193
  20.4549        180
  20.4735        187
