;,2THETA,
5.0000,98
5.0186,93
5.0372,91
5.0557,95
5.0743,104
5.0929,101
5.1115,99
5.1300,114
5.1486,91
5.1672,85
5.1858,78
5.2043,93
5.2229,92
5.2415,92
5.2601,81
5.2786,89
5.2972,96
5.3158,97
5.3344,86
5.3529,84
5.3715,76
5.3901,74
5.4087,89
5.4272,78
5.4458,85
5.4644,79
5.4830,77
5.5015,79
5.5201,75
5.5387,85
5.5573,74
5.5758,76
5.5944,78
5.6130,63
5.6316,74
5.6501,78
5.6687,62
5.6873,81
5.7059,78
5.7244,72
5.7430,70
5.7616,72
5.7802,65
5.7988,81
5.8173,70
5.8359,72
5.8545,74
5.8731,65
5.8916,64
5.9102,81
5.9288,73
5.9474,72
5.9659,56
5.9845,71
6.0031,73
6.0217,74
6.0402,59
6.0588,69
6.0774,65
6.0960,82
6.1145,59
6.1331,97
6.1517,69
6.1703,65
6.1888,67
6.2074,70
6.2260,68
6.2446,67
6.2631,72
6.2817,75
6.3003,65
6.3189,59
6.3374,61
6.3560,58
6.3746,65
6.3932,78
6.4117,63
6.4303,70
6.4489,69
6.4675,74
6.4860,71
6.5046,70
6.5232,65
6.5418,61
6.5604,65
6.5789,79
6.5975,64
6.6161,52
6.6347,57
6.6532,56
6.6718,51
6.6904,67
6.7090,56
6.7275,62
6.7461,53
6.7647,53
6.7833,69
6.8018,60
6.8204,64
6.8390,51
6.8576,65
6.8761,62
6.8947,63
6.9133,65
6.9319,82
6.9504,73
6.9690,60
6.9876,51
7.0062,53
7.0247,57
7.0433,60
7.0619,52
7.0805,54
7.0990,54
7.1176,59
7.1362,69
7.1548,53
7.1733,51
7.1919,54
7.2105,55
7.2291,50
7.2476,61
7.2662,51
7.2848,43
7.3034,56
7.3220,68
7.3405,47
7.3591,55
7.3777,70
7.3963,57
7.4148,57
7.4334,47
7.4520,59
7.4706,61
7.4891,58
7.5077,65
7.5263,46
7.5449,60
7.5634,56
7.5820,54
7.6006,52
7.6192,56
7.6377,80
7.6563,64
7.6749,61
7.6935,53
7.7120,64
7.7306,79
7.7492,69
7.7678,57
7.7863,68
7.8049,57
7.8235,61
7.8421,57
7.8606,91
7.8792,63
7.8978,80
7.9164,66
7.9349,52
7.9535,53
7.9721,64
7.9907,63
8.0092,50
8.0278,62
8.0464,59
8.0650,55
8.0835,72
8.1021,70
8.1207,48
8.1393,70
8.1579,63
8.1764,71
8.1950,71
8.2136,58
8.2322,59
8.2507,83
8.2693,69
8.2879,62
8.3065,64
8.3250,78
8.3436,68
8.3622,61
8.3808,64
8.3993,71
8.4179,74
8.4365,73
8.4551,75
8.4736,62
8.4922,81
8.5108,80
8.5294,93
8.5479,64
8.5665,74
8.5851,62
8.6037,82
8.6222,77
8.6408,65
8.6594,71
8.6780,75
8.6965,71
8.7151,63
8.7337,80
8.7523,64
8.7708,69
8.7894,67
8.8080,80
8.8266,61
8.8451,73
8.8637,79
8.8823,81
8.9009,82
8.9195,65
8.9380,80
8.9566,74
8.9752,87
8.9938,70
9.0123,82
9.0309,83
9.0495,76
9.0681,79
9.0866,73
9.1052,80
9.1238,64
9.1424,98
9.1609,68
9.1795,76
9.1981,96
9.2167,84
9.2352,78
9.2538,66
9.2724,77
9.2910,76
9.3095,66
9.3281,81
9.3467,82
9.3653,83
9.3838,92
9.4024,74
9.4210,97
9.4396,72
9.4581,80
9.4767,63
9.4953,82
9.5139,65
9.5324,65
9.5510,63
9.5696,71
9.5882,79
9.6067,71
9.6253,77
9.6439,87
9.6625,77
9.6811,86
9.6996,77
9.7182,69
9.7368,88
9.7554,74
9.7739,84
9.7925,67
9.8111,97
9.8297,65
9.8482,73
9.8668,92
9.8854,75
9.9040,88
9.9225,78
9.9411,77
9.9597,74
9.9783,74
9.9968,80
10.0154,69
10.0340,84
10.0526,67
10.0711,87
10.0897,93
10.1083,78
10.1269,84
10.1454,83
10.1640,88
10.1826,75
10.2012,80
10.2197,88
10.2383,82
10.2569,66
10.2755,91
10.2940,94
10.3126,90
10.3312,74
10.3498,91
10.3683,88
10.3869,89
10.4055,79
10.4241,76
10.4427,76
10.4612,77
10.4798,85
10.4984,76
10.5170,86
10.5355,62
10.5541,95
10.5727,82
10.5913,84
10.6098,81
10.6284,89
10.6470,86
10.6656,70
10.6841,74
10.7027,97
10.7213,94
10.7399,80
10.7584,95
10.7770,89
10.7956,75
10.8142,87
10.8327,90
10.8513,69
10.8699,92
10.8885,79
10.9070,84
10.9256,90
10.9442,74
10.9628,81
10.9813,74
10.9999,72
11.0185,86
11.0371,71
11.0556,75
11.0742,92
11.0928,82
11.1114,95
11.1299,87
11.1485,82
11.1671,115
11.1857,93
11.2043,82
11.2228,92
11.2414,76
11.2600,88
11.2786,78
11.2971,82
11.3157,99
11.3343,80
11.3529,77
11.3714,79
11.3900,87
11.4086,85
11.4272,69
11.4457,90
11.4643,87
11.4829,81
11.5015,83
11.5200,75
11.5386,68
11.5572,76
11.5758,83
11.5943,82
11.6129,65
11.6315,80
11.6501,84
11.6686,81
11.6872,99
11.7058,69
11.7244,80
11.7429,73
11.7615,94
11.7801,80
11.7987,83
11.8172,76
11.8358,89
11.8544,83
11.8730,84
11.8915,78
11.9101,65
11.9287,80
11.9473,90
11.9659,63
11.9844,79
12.0030,65
12.0216,79
12.0402,90
12.0587,65
12.0773,69
12.0959,90
12.1145,100
12.1330,76
12.1516,70
12.1702,90
12.1888,101
12.2073,65
12.2259,72
12.2445,74
12.2631,87
12.2816,67
12.3002,89
12.3188,61
12.3374,85
12.3559,82
12.3745,83
12.3931,64
12.4117,85
12.4302,71
12.4488,85
12.4674,83
12.4860,75
12.5045,77
12.5231,85
12.5417,82
12.5603,73
12.5788,74
12.5974,65
12.6160,88
12.6346,71
12.6531,69
12.6717,82
12.6903,94
12.7089,73
12.7274,74
12.7460,73
12.7646,65
12.7832,81
12.8018,78
12.8203,66
12.8389,57
12.8575,67
12.8761,68
12.8946,78
12.9132,69
12.9318,96
12.9504,80
12.9689,69
12.9875,69
13.0061,65
13.0247,75
13.0432,68
13.0618,67
13.0804,73
13.0990,84
13.1175,68
13.1361,70
13.1547,62
13.1733,78
13.1918,74
13.2104,63
13.2290,68
13.2476,86
13.2661,70
13.2847,61
13.3033,80
13.3219,62
13.3404,59
13.3590,70
13.3776,63
13.3962,72
13.4147,70
13.4333,78
13.4519,70
13.4705,62
13.4890,68
13.5076,72
13.5262,58
13.5448,56
13.5634,78
13.5819,68
13.6005,80
13.6191,60
13.6377,68
13.6562,75
13.6748,56
13.6934,79
13.7120,57
13.7305,56
13.7491,64
13.7677,77
13.7863,63
13.8048,65
13.8234,58
13.8420,66
13.8606,68
13.8791,59
13.8977,64
13.9163,76
13.9349,68
13.9534,66
13.9720,66
13.9906,55
14.0092,75
14.0277,57
14.0463,59
14.0649,68
14.0835,61
14.1020,78
14.1206,66
14.1392,61
14.1578,57
14.1763,67
14.1949,69
14.2135,58
14.2321,45
14.2506,66
14.2692,67
14.2878,75
14.3064,45
14.3250,69
14.3435,44
14.3621,82
14.3807,70
14.3993,52
14.4178,73
14.4364,49
14.4550,54
14.4736,74
14.4921,65
14.5107,70
14.5293,79
14.5479,70
14.5664,68
14.5850,46
14.6036,70
14.6222,67
14.6407,60
14.6593,49
14.6779,60
14.6965,57
14.7150,76
14.7336,46
14.7522,54
14.7708,59
14.7893,50
14.8079,58
14.8265,62
14.8451,64
14.8636,55
14.8822,64
14.9008,60
14.9194,52
14.9379,57
14.9565,67
14.9751,57
14.9937,52
15.0122,60
15.0308,62
15.0494,58
15.0680,70
15.0866,52
15.1051,50
15.1237,65
15.1423,69
15.1609,58
15.1794,46
15.1980,57
15.2166,73
15.2352,60
15.2537,85
15.2723,59
15.2909,49
15.3095,63
15.3280,59
15.3466,71
15.3652,56
15.3838,63
15.4023,65
15.4209,63
15.4395,65
15.4581,60
15.4766,65
15.4952,52
15.5138,57
15.5324,42
15.5509,67
15.5695,79
15.5881,75
15.6067,52
15.6252,58
15.6438,63
15.6624,75
15.6810,65
15.6995,56
15.7181,63
15.7367,52
15.7553,55
15.7738,56
15.7924,58
15.8110,59
15.8296,47
15.8482,68
15.8667,52
15.8853,58
15.9039,55
15.9225,62
15.9410,41
15.9596,56
15.9782,60
15.9968,72
16.0153,58
16.0339,49
16.0525,54
16.0711,60
16.0896,71
16.1082,67
16.1268,58
16.1454,50
16.1639,45
16.1825,60
16.2011,49
16.2197,68
16.2382,58
16.2568,61
16.2754,51
16.2940,56
16.3125,58
16.3311,54
16.3497,59
16.3683,65
16.3868,58
16.4054,50
16.4240,59
16.4426,65
16.4611,63
16.4797,61
16.4983,52
16.5169,52
16.5354,64
16.5540,41
16.5726,58
16.5912,55
16.6097,73
16.6283,73
16.6469,49
16.6655,56
16.6841,62
16.7026,58
16.7212,47
16.7398,49
16.7584,68
16.7769,56
16.7955,59
16.8141,51
16.8327,56
16.8512,55
16.8698,76
16.8884,42
16.9070,60
16.9255,60
16.9441,51
16.9627,47
16.9813,51
16.9998,52
17.0184,47
17.0370,56
17.0556,45
17.0741,65
17.0927,65
17.1113,72
17.1299,52
17.1484,49
17.1670,46
17.1856,64
17.2042,61
17.2227,65
17.2413,52
17.2599,60
17.2785,58
17.2970,69
17.3156,52
17.3342,42
17.3528,58
17.3713,68
17.3899,49
17.4085,61
17.4271,46
17.4457,65
17.4642,69
17.4828,61
17.5014,50
17.5200,55
17.5385,61
17.5571,53
17.5757,69
17.5943,66
17.6128,48
17.6314,67
17.6500,69
17.6686,56
17.6871,57
17.7057,81
17.7243,55
17.7429,59
17.7614,61
17.7800,45
17.7986,51
17.8172,49
17.8357,64
17.8543,61
17.8729,65
17.8915,46
17.9100,74
17.9286,60
17.9472,58
17.9658,62
17.9843,64
18.0029,51
18.0215,55
18.0401,56
18.0586,63
18.0772,53
18.0958,58
18.1144,54
18.1329,52
18.1515,68
18.1701,61
18.1887,67
18.2073,74
18.2258,53
18.2444,56
18.2630,52
18.2816,57
18.3001,55
18.3187,68
18.3373,53
18.3559,55
18.3744,69
18.3930,68
18.4116,60
18.4302,56
18.4487,71
18.4673,52
18.4859,61
18.5045,56
18.5230,56
18.5416,62
18.5602,51
18.5788,63
18.5973,46
18.6159,51
18.6345,68
18.6531,61
18.6716,68
18.6902,57
18.7088,55
18.7274,57
18.7459,69
18.7645,50
18.7831,64
18.8017,41
18.8202,59
18.8388,50
18.8574,47
18.8760,72
18.8945,71
18.9131,60
18.9317,73
18.9503,47
18.9689,62
18.9874,70
19.0060,52
19.0246,49
19.0432,58
19.0617,72
19.0803,67
19.0989,68
19.1175,71
19.1360,64
19.1546,63
19.1732,69
19.1918,38
19.2103,63
19.2289,58
19.2475,74
19.2661,77
19.2846,62
19.3032,50
19.3218,72
19.3404,68
19.3589,65
19.3775,53
19.3961,73
19.4147,68
19.4332,77
19.4518,57
19.4704,82
19.4890,73
19.5075,68
19.5261,64
19.5447,63
19.5633,69
19.5818,58
19.6004,60
19.6190,64
19.6376,56
19.6561,50
19.6747,62
19.6933,55
19.7119,67
19.7305,73
19.7490,62
19.7676,55
19.7862,79
19.8048,71
19.8233,74
19.8419,65
19.8605,74
19.8791,63
19.8976,53
19.9162,63
19.9348,71
19.9534,62
19.9719,57
19.9905,55
20.0091,56
20.0277,58
20.0462,65
20.0648,70
20.0834,58
20.1020,66
20.1205,56
20.1391,52
20.1577,63
20.1763,69
20.1948,61
20.2134,58
20.2320,64
20.2506,67
20.2691,58
20.2877,74
20.3063,85
20.3249,71
20.3434,66
20.3620,76
20.3806,57
20.3992,67
20.4177,62
20.4363,54
20.4549,60
20.4735,62
20.4921,77
20.5106,70
20.5292,87
20.5478,72
20.5664,69
20.5849,69
20.6035,80
20.6221,78
20.6407,65
20.6592,70
20.6778,65
20.6964,60
20.7150,62
20.7335,60
20.7521,68
20.7707,65
20.7893,74
20.8078,75
20.8264,70
20.8450,65
20.8636,74
20.8821,65
20.9007,50
20.9193,61
20.9379,75
20.9564,55
20.9750,69
20.9936,71
21.0122,75
21.0307,59
21.0493,64
21.0679,72
21.0865,80
21.1050,76
21.1236,78
21.1422,68
21.1608,105
21.1793,114
21.1979,112
21.2165,129
21.2351,118
21.2537,100
21.2722,127
21.2908,112
21.3094,157
21.3280,179
21.3465,190
21.3651,153
21.3837,125
21.4023,130
21.4208,104
21.4394,82
21.4580,71
21.4766,70
21.4951,73
21.5137,92
21.5323,66
21.5509,72
21.5694,72
21.5880,75
21.6066,72
21.6252,61
21.6437,63
21.6623,76
21.6809,69
21.6995,71
21.7180,77
21.7366,56
21.7552,82
21.7738,85
21.7923,68
21.8109,78
21.8295,73
21.8481,64
21.8666,64
21.8852,68
21.9038,66
21.9224,80
21.9409,79
21.9595,59
21.9781,63
21.9967,70
22.0152,57
22.0338,63
22.0524,73
22.0710,72
22.0896,73
22.1081,56
22.1267,70
22.1453,69
22.1639,87
22.1824,74
22.2010,58
22.2196,79
22.2382,67
22.2567,53
22.2753,82
22.2939,61
22.3125,74
22.3310,75
22.3496,68
22.3682,73
22.3868,60
22.4053,64
22.4239,65
22.4425,66
22.4611,78
22.4796,63
22.4982,81
22.5168,55
22.5354,79
22.5539,65
22.5725,65
22.5911,75
22.6097,67
22.6282,78
22.6468,74
22.6654,53
22.6840,60
22.7025,63
22.7211,73
22.7397,72
22.7583,74
22.7768,74
22.7954,74
22.8140,79
22.8326,79
22.8512,65
22.8697,67
22.8883,56
22.9069,72
22.9255,81
22.9440,67
22.9626,73
22.9812,60
22.9998,68
23.0183,80
23.0369,78
23.0555,67
23.0741,69
23.0926,81
23.1112,66
23.1298,64
23.1484,82
23.1669,61
23.1855,80
23.2041,73
23.2227,65
23.2412,71
23.2598,78
23.2784,86
23.2970,73
23.3155,75
23.3341,93
23.3527,62
23.3713,83
23.3898,98
23.4084,66
23.4270,64
23.4456,68
23.4641,68
23.4827,74
23.5013,60
23.5199,59
23.5384,69
23.5570,76
23.5756,76
23.5942,67
23.6128,74
23.6313,67
23.6499,89
23.6685,67
23.6871,71
23.7056,79
23.7242,78
23.7428,55
23.7614,66
23.7799,67
23.7985,63
23.8171,78
23.8357,80
23.8542,64
23.8728,81
23.8914,81
23.9100,93
23.9285,64
23.9471,82
23.9657,68
23.9843,64
24.0028,70
24.0214,63
24.0400,91
24.0586,75
24.0771,86
24.0957,64
24.1143,67
24.1329,64
24.1514,80
24.1700,63
24.1886,68
24.2072,80
24.2257,80
24.2443,75
24.2629,85
24.2815,93
24.3000,68
24.3186,77
24.3372,74
24.3558,73
24.3744,68
24.3929,71
24.4115,76
24.4301,80
24.4487,77
24.4672,65
24.4858,69
24.5044,59
24.5230,61
24.5415,78
24.5601,70
24.5787,93
24.5973,64
24.6158,68
24.6344,65
24.6530,73
24.6716,82
24.6901,83
24.7087,82
24.7273,64
24.7459,74
24.7644,71
24.7830,76
24.8016,72
24.8202,66
24.8387,72
24.8573,49
24.8759,62
24.8945,65
24.9130,74
24.9316,56
24.9502,74
24.9688,92
24.9873,77
25.0059,75
25.0245,75
25.0431,97
25.0616,79
25.0802,71
25.0988,61
25.1174,79
25.1360,64
25.1545,76
25.1731,74
25.1917,59
25.2103,65
25.2288,68
25.2474,56
25.2660,74
25.2846,78
25.3031,75
25.3217,72
25.3403,73
25.3589,74
25.3774,86
25.3960,57
25.4146,80
25.4332,63
25.4517,69
25.4703,71
25.4889,69
25.5075,72
25.5260,69
25.5446,75
25.5632,55
25.5818,74
25.6003,68
25.6189,74
25.6375,92
25.6561,79
25.6746,65
25.6932,62
25.7118,59
25.7304,80
25.7489,61
25.7675,60
25.7861,73
25.8047,73
25.8232,84
25.8418,67
25.8604,59
25.8790,59
25.8976,73
25.9161,73
25.9347,70
25.9533,76
25.9719,61
25.9904,80
26.0090,72
26.0276,60
26.0462,75
26.0647,66
26.0833,56
26.1019,84
26.1205,66
26.1390,64
26.1576,77
26.1762,73
26.1948,62
26.2133,65
26.2319,60
26.2505,83
26.2691,74
26.2876,57
26.3062,55
26.3248,64
26.3434,67
26.3619,59
26.3805,64
26.3991,67
26.4177,81
26.4362,67
26.4548,69
26.4734,79
26.4920,71
26.5105,68
26.5291,56
26.5477,66
26.5663,65
26.5848,63
26.6034,85
26.6220,72
26.6406,69
26.6591,69
26.6777,72
26.6963,78
26.7149,68
26.7335,71
26.7520,58
26.7706,53
26.7892,69
26.8078,66
26.8263,64
26.8449,85
26.8635,60
26.8821,64
26.9006,65
26.9192,65
26.9378,80
26.9564,78
26.9749,68
26.9935,59
27.0121,72
27.0307,76
27.0492,67
27.0678,64
27.0864,77
27.1050,86
27.1235,74
27.1421,80
27.1607,67
27.1793,80
27.1978,83
27.2164,81
27.2350,96
27.2536,74
27.2721,82
27.2907,92
27.3093,64
27.3279,55
27.3464,72
27.3650,70
27.3836,67
27.4022,70
27.4207,67
27.4393,71
27.4579,70
27.4765,70
27.4951,69
27.5136,80
27.5322,62
27.5508,53
27.5694,59
27.5879,57
27.6065,65
27.6251,60
27.6437,59
27.6622,67
27.6808,66
27.6994,83
27.7180,87
27.7365,55
27.7551,50
27.7737,58
27.7923,66
27.8108,72
27.8294,55
27.8480,54
27.8666,69
27.8851,49
27.9037,54
27.9223,68
27.9409,67
27.9594,77
27.9780,63
27.9966,53
28.0152,60
28.0337,66
28.0523,74
28.0709,58
28.0895,82
28.1080,80
28.1266,87
28.1452,53
28.1638,68
28.1823,62
28.2009,58
28.2195,60
28.2381,76
28.2567,70
28.2752,53
28.2938,67
28.3124,64
28.3310,60
28.3495,59
28.3681,73
28.3867,72
28.4053,58
28.4238,67
28.4424,76
28.4610,63
28.4796,57
28.4981,58
28.5167,54
28.5353,78
28.5539,56
28.5724,81
28.5910,66
28.6096,58
28.6282,60
28.6467,70
28.6653,54
28.6839,54
28.7025,55
28.7210,69
28.7396,69
28.7582,61
28.7768,50
28.7953,58
28.8139,51
28.8325,51
28.8511,66
28.8696,55
28.8882,64
28.9068,66
28.9254,67
28.9439,53
28.9625,51
28.9811,49
28.9997,52
29.0183,57
29.0368,51
29.0554,65
29.0740,62
29.0926,53
29.1111,53
29.1297,64
29.1483,46
29.1669,59
29.1854,50
29.2040,62
29.2226,66
29.2412,68
29.2597,64
29.2783,65
29.2969,64
29.3155,52
29.3340,62
29.3526,49
29.3712,62
29.3898,61
29.4083,50
29.4269,58
29.4455,58
29.4641,66
29.4826,69
29.5012,73
29.5198,45
29.5384,61
29.5569,66
29.5755,40
29.5941,44
29.6127,52
29.6312,57
29.6498,53
29.6684,51
29.6870,51
29.7055,54
29.7241,67
29.7427,55
29.7613,60
29.7799,52
29.7984,56
29.8170,49
29.8356,58
29.8542,62
29.8727,54
29.8913,54
29.9099,60
29.9285,63
29.9470,50
29.9656,44
29.9842,66
30.0028,49
30.0213,57
30.0399,53
30.0585,59
30.0771,44
30.0956,60
30.1142,58
30.1328,71
30.1514,64
30.1699,55
30.1885,44
30.2071,61
30.2257,54
30.2442,54
30.2628,44
30.2814,73
30.3000,60
30.3185,76
30.3371,96
30.3557,130
30.3743,123
30.3928,99
30.4114,87
30.4300,76
30.4486,97
30.4671,59
30.4857,67
30.5043,58
30.5229,57
30.5415,52
30.5600,55
30.5786,43
30.5972,62
30.6158,63
30.6343,52
30.6529,45
30.6715,55
30.6901,53
30.7086,75
30.7272,50
30.7458,52
30.7644,56
30.7829,48
30.8015,59
30.8201,71
30.8387,55
30.8572,49
30.8758,55
30.8944,68
30.9130,60
30.9315,42
30.9501,52
30.9687,51
30.9873,54
31.0058,51
31.0244,55
31.0430,46
31.0616,56
31.0801,52
31.0987,65
31.1173,46
31.1359,52
31.1544,55
31.1730,57
31.1916,57
31.2102,62
31.2287,44
31.2473,41
31.2659,56
31.2845,61
31.3030,59
31.3216,52
31.3402,53
31.3588,49
31.3774,48
31.3959,47
31.4145,60
31.4331,46
31.4517,50
31.4702,43
31.4888,53
31.5074,59
31.5260,51
31.5445,57
31.5631,43
31.5817,65
31.6003,42
31.6188,57
31.6374,49
31.6560,39
31.6746,56
31.6931,48
31.7117,39
31.7303,57
31.7489,59
31.7674,46
31.7860,36
31.8046,43
31.8232,49
31.8417,53
31.8603,50
31.8789,44
31.8975,46
31.9160,48
31.9346,53
31.9532,37
31.9718,44
31.9903,38
32.0089,44
32.0275,50
32.0461,49
32.0646,47
32.0832,56
32.1018,47
32.1204,41
32.1390,38
32.1575,53
32.1761,44
32.1947,51
32.2133,41
32.2318,56
32.2504,34
32.2690,44
32.2876,45
32.3061,35
32.3247,41
32.3433,51
32.3619,46
32.3804,50
32.3990,55
32.4176,58
32.4362,49
32.4547,47
32.4733,45
32.4919,40
32.5105,55
32.5290,60
32.5476,51
32.5662,58
32.5848,46
32.6033,50
32.6219,41
32.6405,48
32.6591,50
32.6776,47
32.6962,59
32.7148,40
32.7334,49
32.7519,59
32.7705,42
32.7891,42
32.8077,43
32.8262,50
32.8448,45
32.8634,43
32.8820,49
32.9006,45
32.9191,51
32.9377,40
32.9563,44
32.9749,48
32.9934,55
33.0120,51
33.0306,44
33.0492,52
33.0677,35
33.0863,47
33.1049,44
33.1235,63
33.1420,40
33.1606,45
33.1792,39
33.1978,34
33.2163,35
33.2349,45
33.2535,28
33.2721,45
33.2906,37
33.3092,52
33.3278,43
33.3464,46
33.3649,44
33.3835,37
33.4021,46
33.4207,42
33.4392,44
33.4578,51
33.4764,39
33.4950,36
33.5135,34
33.5321,45
33.5507,45
33.5693,42
33.5878,39
33.6064,42
33.6250,54
33.6436,39
33.6622,45
33.6807,39
33.6993,46
33.7179,40
33.7365,44
33.7550,44
33.7736,40
33.7922,51
33.8108,47
33.8293,34
33.8479,41
33.8665,45
33.8851,46
33.9036,52
33.9222,41
33.9408,43
33.9594,34
33.9779,41
33.9965,32
34.0151,39
34.0337,48
34.0522,50
34.0708,42
34.0894,39
34.1080,52
34.1265,37
34.1451,50
34.1637,53
34.1823,48
34.2008,46
34.2194,34
34.2380,39
34.2566,41
34.2751,42
34.2937,28
34.3123,44
34.3309,35
34.3494,42
34.3680,54
34.3866,40
34.4052,39
34.4238,37
34.4423,33
34.4609,44
34.4795,40
34.4981,38
34.5166,49
34.5352,54
34.5538,35
34.5724,50
34.5909,63
34.6095,42
34.6281,35
34.6467,44
34.6652,47
34.6838,47
34.7024,53
34.7210,60
34.7395,53
34.7581,53
34.7767,53
34.7953,58
34.8138,48
34.8324,42
34.8510,44
34.8696,46
34.8881,55
34.9067,42
34.9253,48
34.9439,37
34.9624,42
34.9810,43
34.9996,45
35.0182,32
35.0367,53
35.0553,31
35.0739,44
35.0925,36
35.1110,36
35.1296,47
35.1482,46
35.1668,33
35.1854,55
35.2039,37
35.2225,42
35.2411,36
35.2597,51
35.2782,31
35.2968,47
35.3154,44
35.3340,49
35.3525,39
35.3711,37
35.3897,42
35.4083,46
35.4268,45
35.4454,37
35.4640,38
35.4826,44
35.5011,30
35.5197,39
35.5383,35
35.5569,45
35.5754,43
35.5940,36
35.6126,31
35.6312,41
35.6497,44
35.6683,33
35.6869,33
35.7055,36
35.7240,43
35.7426,36
35.7612,46
35.7798,43
35.7983,40
35.8169,30
35.8355,34
35.8541,34
35.8726,43
35.8912,35
35.9098,43
35.9284,33
35.9469,34
35.9655,40
35.9841,25
36.0027,37
36.0213,38
36.0398,34
36.0584,40
36.0770,35
36.0956,49
36.1141,34
36.1327,38
36.1513,33
36.1699,25
36.1884,34
36.2070,28
36.2256,41
36.2442,37
36.2627,30
36.2813,31
36.2999,37
36.3185,41
36.3370,41
36.3556,37
36.3742,29
36.3928,33
36.4113,40
36.4299,50
36.4485,39
36.4671,40
36.4856,20
36.5042,29
36.5228,32
36.5414,34
36.5599,27
36.5785,35
36.5971,30
36.6157,33
36.6342,29
36.6528,31
36.6714,35
36.6900,39
36.7085,38
36.7271,29
36.7457,33
36.7643,23
36.7829,30
36.8014,25
36.8200,45
36.8386,25
36.8572,41
36.8757,27
36.8943,32
36.9129,39
36.9315,33
36.9500,36
36.9686,30
36.9872,35
37.0058,33
37.0243,24
37.0429,26
37.0615,33
37.0801,35
37.0986,36
37.1172,39
37.1358,37
37.1544,33
37.1729,26
37.1915,40
37.2101,33
37.2287,29
37.2472,30
37.2658,30
37.2844,40
37.3030,34
37.3215,31
37.3401,37
37.3587,31
37.3773,40
37.3958,43
37.4144,50
37.4330,52
37.4516,48
37.4701,44
37.4887,34
37.5073,44
37.5259,51
37.5445,31
37.5630,48
37.5816,40
37.6002,28
37.6188,34
37.6373,40
37.6559,31
37.6745,37
37.6931,39
37.7116,40
37.7302,28
37.7488,26
37.7674,42
37.7859,28
37.8045,38
37.8231,23
37.8417,25
37.8602,46
37.8788,38
37.8974,32
37.9160,26
37.9345,24
37.9531,32
37.9717,27
37.9903,38
38.0088,32
38.0274,21
38.0460,28
38.0646,42
38.0831,31
38.1017,31
38.1203,27
38.1389,25
38.1574,37
38.1760,44
38.1946,37
38.2132,29
38.2317,38
38.2503,22
38.2689,31
38.2875,32
38.3061,27
38.3246,27
38.3432,39
38.3618,31
38.3804,24
38.3989,25
38.4175,35
38.4361,35
38.4547,36
38.4732,31
38.4918,26
38.5104,29
38.5290,30
38.5475,35
38.5661,41
38.5847,39
38.6033,32
38.6218,34
38.6404,24
38.6590,25
38.6776,34
38.6961,33
38.7147,31
38.7333,43
38.7519,35
38.7704,25
38.7890,33
38.8076,25
38.8262,25
38.8447,29
38.8633,32
38.8819,24
38.9005,25
38.9190,32
38.9376,22
38.9562,27
38.9748,28
38.9933,30
39.0119,40
39.0305,31
39.0491,26
39.0677,23
39.0862,30
39.1048,19
39.1234,25
39.1420,26
