; (content of file Y:\Sam\Apurva-07-20-2022\puck4\ML_20220718_57_SJD_4_LaB6-4min.raw)
_FILEVERSION = 3
_SAMPLE = ML_20220718_57_SJD_4_LaB6-4min
_+SAMPLE = 
_SITE = USA
_USER = Administrator
_GONIOMETER_CODE = 20
; Goniometer : D8 theta/2theta, stage : Unknown
_ATTACHMENTS_CODE = 0
_GONIOMETER_RADIUS = 200.5
_FIXED_DIVSLIT = 0.6
_FIXED_SAMPLESLIT = 0
_SOLLER_SLITS = 2
_FIXED_DETSLIT = 9.55
_MONOCHROMATOR = 0
; Incident beam monochromator : None
_SOLLER_SLITS_2 = N
_THIN_FILM = N
_BETA_FILTER = Y
_FIXED_ANTISLIT = 5.89
_ANALYZER_CODE = 0
; Received beam analyzer : None
_DATEMEASURED = "26-Jul-2022 14:39:46"
_WL_UNIT = A
_WL1 = 1.5406
_WL2 = 1.54439
_WL3 = 1.39222
_WLRATIO = 0.5
_ANODE = Cu
_V4_INF_CREATOR = XRDWizard
_V4_INF_CREATOR_VERSION = V2.9.0.22
_V4_INF_WIZARD_VERSION = V2.9.0.22
_V4_INF_WIZARD_ADDINS = V2.9.0.22
_V4_INF_WIZARD_DOCTYPE = XRD
_V4_INF_OSUSER = McQueenLab
_V4_INF_USER = Administrator
_V4_INF_SITE = USA
_V4_INF_SAMPLEID = ML_20220718_57_SJD_4_LaB6-4min

; Data for range 1
_DRIVE = COUPLED
_STEPTIME = 11.28
_STEPSIZE = 0.0185756
_STEPMODE = C
_START = 5
_THETA = 2.5
_2THETA = 5
_KHI = 0
_PHI = 0
_X = 0
_Y = 0
_Z = 0
_DETECTOR = 5
; Detector type : Unknown
_DETECTORSLIT = unkn
_AUX1 = 0
_AUX2 = 0
_AUX3 = 0
_TIMESTARTED = 21
_TEMP_RATE = -1
_TEMP_DELAY = -1
_KV = 40
_MA = 40
_RANGE_WL = 1.5406
_3DPLANE = 0
_V4_ADDITIONALDETECTOR = 257
_V4_PSD2THETA = 49.8039
_V4_PSDCHANNEL1 = 0
_V4_PSDAPERTURE = 12.68
_V4_PSDTYPE = 5
_V4_PSDFIXED = 0
_V4_COUNTERS_MASK = 4096
_V4_DRIVES_MASK = 0
_V4_ENCODERS_MASK = 0
_2THETACOUNTS = 1
; 2THETA  PSD
   5.0000        289
   5.0186        243
   5.0372        277
   5.0557        262
   5.0743        256
   5.0929        253
   5.1115        249
   5.1300        232
   5.1486        263
   5.1672        259
   5.1858        246
   5.2043        242
   5.2229        267
   5.2415        265
   5.2601        226
   5.2786        242
   5.2972        248
   5.3158        227
   5.3344        240
   5.3529        205
   5.3715        225
   5.3901        263
   5.4087        230
   5.4272        231
   5.4458        224
   5.4644        236
   5.4830        232
   5.5015        246
   5.5201        216
   5.5387        249
   5.5573        221
   5.5758        226
   5.5944        228
   5.6130        217
   5.6316        228
   5.6501        210
   5.6687        208
   5.6873        201
   5.7059        231
   5.7244        213
   5.7430        196
   5.7616        233
   5.7802        203
   5.7988        237
   5.8173        200
   5.8359        193
   5.8545        187
   5.8731        180
   5.8916        199
   5.9102        192
   5.9288        213
   5.9474        180
   5.9659        209
   5.9845        201
   6.0031        205
   6.0217        178
   6.0402        199
   6.0588        197
   6.0774        189
   6.0960        218
   6.1145        199
   6.1331        192
   6.1517        189
   6.1703        208
   6.1888        164
   6.2074        170
   6.2260        183
   6.2446        194
   6.2631        180
   6.2817        186
   6.3003        178
   6.3189        159
   6.3374        163
   6.3560        180
   6.3746        173
   6.3932        202
   6.4117        156
   6.4303        202
   6.4489        200
   6.4675        191
   6.4860        183
   6.5046        179
   6.5232        190
   6.5418        177
   6.5604        189
   6.5789        179
   6.5975        169
   6.6161        187
   6.6347        170
   6.6532        163
   6.6718        158
   6.6904        146
   6.7090        174
   6.7275        179
   6.7461        174
   6.7647        167
   6.7833        159
   6.8018        151
   6.8204        161
   6.8390        157
   6.8576        160
   6.8761        170
   6.8947        172
   6.9133        174
   6.9319        164
   6.9504        156
   6.9690        157
   6.9876        148
   7.0062        168
   7.0247        144
   7.0433        165
   7.0619        171
   7.0805        160
   7.0990        158
   7.1176        163
   7.1362        180
   7.1548        167
   7.1733        182
   7.1919        164
   7.2105        177
   7.2291        166
   7.2476        167
   7.2662        146
   7.2848        163
   7.3034        151
   7.3220        162
   7.3405        146
   7.3591        180
   7.3777        154
   7.3963        171
   7.4148        167
   7.4334        145
   7.4520        162
   7.4706        172
   7.4891        160
   7.5077        172
   7.5263        157
   7.5449        166
   7.5634        148
   7.5820        153
   7.6006        157
   7.6192        184
   7.6377        179
   7.6563        166
   7.6749        185
   7.6935        180
   7.7120        169
   7.7306        175
   7.7492        178
   7.7678        153
   7.7863        172
   7.8049        206
   7.8235        195
   7.8421        171
   7.8606        161
   7.8792        182
   7.8978        193
   7.9164        196
   7.9349        195
   7.9535        203
   7.9721        182
   7.9907        178
   8.0092        190
   8.0278        193
   8.0464        195
   8.0650        198
   8.0835        194
   8.1021        192
   8.1207        193
   8.1393        186
   8.1579        217
   8.1764        197
   8.1950        189
   8.2136        173
   8.2322        196
   8.2507        192
   8.2693        178
   8.2879        190
   8.3065        186
   8.3250        210
   8.3436        207
   8.3622        206
   8.3808        210
   8.3993        179
   8.4179        174
   8.4365        203
   8.4551        201
   8.4736        229
   8.4922        206
   8.5108        210
   8.5294        229
   8.5479        229
   8.5665        215
   8.5851        208
   8.6037        214
   8.6222        203
   8.6408        224
   8.6594        200
   8.6780        196
   8.6965        213
   8.7151        227
   8.7337        197
   8.7523        196
   8.7708        175
   8.7894        216
   8.8080        217
   8.8266        220
   8.8451        197
   8.8637        183
   8.8823        227
   8.9009        214
   8.9195        220
   8.9380        219
   8.9566        218
   8.9752        194
   8.9938        215
   9.0123        224
   9.0309        201
   9.0495        193
   9.0681        214
   9.0866        183
   9.1052        251
   9.1238        204
   9.1424        234
   9.1609        201
   9.1795        230
   9.1981        209
   9.2167        233
   9.2352        215
   9.2538        202
   9.2724        199
   9.2910        223
   9.3095        217
   9.3281        207
   9.3467        222
   9.3653        223
   9.3838        211
   9.4024        228
   9.4210        189
   9.4396        196
   9.4581        229
   9.4767        234
   9.4953        205
   9.5139        241
   9.5324        214
   9.5510        236
   9.5696        206
   9.5882        243
   9.6067        227
   9.6253        236
   9.6439        246
   9.6625        230
   9.6811        231
   9.6996        222
   9.7182        226
   9.7368        227
   9.7554        225
   9.7739        238
   9.7925        221
   9.8111        229
   9.8297        228
   9.8482        254
   9.8668        224
   9.8854        231
   9.9040        242
   9.9225        252
   9.9411        229
   9.9597        252
   9.9783        238
   9.9968        247
  10.0154        221
  10.0340        253
  10.0526        231
  10.0711        235
  10.0897        251
  10.1083        224
  10.1269        265
  10.1454        232
  10.1640        236
  10.1826        258
  10.2012        254
  10.2197        203
  10.2383        252
  10.2569        245
  10.2755        252
  10.2940        250
  10.3126        237
  10.3312        251
  10.3498        246
  10.3683        257
  10.3869        257
  10.4055        258
  10.4241        233
  10.4427        230
  10.4612        220
  10.4798        226
  10.4984        250
  10.5170        244
  10.5355        205
  10.5541        272
  10.5727        255
  10.5913        238
  10.6098        231
  10.6284        253
  10.6470        262
  10.6656        245
  10.6841        258
  10.7027        227
  10.7213        257
  10.7399        240
  10.7584        234
  10.7770        265
  10.7956        207
  10.8142        237
  10.8327        227
  10.8513        253
  10.8699        249
  10.8885        240
  10.9070        256
  10.9256        194
  10.9442        233
  10.9628        226
  10.9813        231
  10.9999        219
  11.0185        239
  11.0371        245
  11.0556        224
  11.0742        243
  11.0928        260
  11.1114        254
  11.1299        234
  11.1485        265
  11.1671        227
  11.1857        244
  11.2043        225
  11.2228        256
  11.2414        215
  11.2600        247
  11.2786        235
  11.2971        246
  11.3157        241
  11.3343        238
  11.3529        245
  11.3714        246
  11.3900        214
  11.4086        224
  11.4272        226
  11.4457        232
  11.4643        213
  11.4829        255
  11.5015        232
  11.5200        242
  11.5386        235
  11.5572        236
  11.5758        224
  11.5943        254
  11.6129        215
  11.6315        229
  11.6501        243
  11.6686        240
  11.6872        214
  11.7058        236
  11.7244        240
  11.7429        229
  11.7615        212
  11.7801        240
  11.7987        211
  11.8172        216
  11.8358        270
  11.8544        243
  11.8730        226
  11.8915        222
  11.9101        246
  11.9287        254
  11.9473        260
  11.9659        237
  11.9844        231
  12.0030        257
  12.0216        220
  12.0402        235
  12.0587        237
  12.0773        212
  12.0959        203
  12.1145        231
  12.1330        233
  12.1516        244
  12.1702        221
  12.1888        259
  12.2073        242
  12.2259        250
  12.2445        245
  12.2631        234
  12.2816        209
  12.3002        226
  12.3188        206
  12.3374        227
  12.3559        231
  12.3745        223
  12.3931        203
  12.4117        223
  12.4302        228
  12.4488        209
  12.4674        203
  12.4860        233
  12.5045        222
  12.5231        221
  12.5417        209
  12.5603        228
  12.5788        182
  12.5974        226
  12.6160        212
  12.6346        236
  12.6531        215
  12.6717        207
  12.6903        225
  12.7089        212
  12.7274        218
  12.7460        225
  12.7646        202
  12.7832        212
  12.8018        214
  12.8203        198
  12.8389        213
  12.8575        228
  12.8761        194
  12.8946        204
  12.9132        217
  12.9318        205
  12.9504        206
  12.9689        206
  12.9875        183
  13.0061        222
  13.0247        212
  13.0432        225
  13.0618        210
  13.0804        200
  13.0990        181
  13.1175        205
  13.1361        231
  13.1547        197
  13.1733        207
  13.1918        181
  13.2104        220
  13.2290        190
  13.2476        201
  13.2661        189
  13.2847        199
  13.3033        202
  13.3219        194
  13.3404        211
  13.3590        212
  13.3776        199
  13.3962        192
  13.4147        217
  13.4333        171
  13.4519        213
  13.4705        186
  13.4890        203
  13.5076        207
  13.5262        181
  13.5448        188
  13.5634        203
  13.5819        192
  13.6005        205
  13.6191        201
  13.6377        167
  13.6562        198
  13.6748        212
  13.6934        205
  13.7120        202
  13.7305        209
  13.7491        188
  13.7677        186
  13.7863        176
  13.8048        204
  13.8234        197
  13.8420        178
  13.8606        195
  13.8791        197
  13.8977        184
  13.9163        172
  13.9349        170
  13.9534        206
  13.9720        185
  13.9906        188
  14.0092        175
  14.0277        179
  14.0463        203
  14.0649        167
  14.0835        197
  14.1020        201
  14.1206        190
  14.1392        195
  14.1578        167
  14.1763        180
  14.1949        174
  14.2135        178
  14.2321        167
  14.2506        174
  14.2692        198
  14.2878        176
  14.3064        165
  14.3250        148
  14.3435        189
  14.3621        194
  14.3807        198
  14.3993        184
  14.4178        147
  14.4364        162
  14.4550        175
  14.4736        188
  14.4921        162
  14.5107        198
  14.5293        159
  14.5479        179
  14.5664        184
  14.5850        194
  14.6036        174
  14.6222        170
  14.6407        178
  14.6593        163
  14.6779        185
  14.6965        170
  14.7150        172
  14.7336        169
  14.7522        176
  14.7708        183
  14.7893        182
  14.8079        166
  14.8265        161
  14.8451        162
  14.8636        162
  14.8822        177
  14.9008        155
  14.9194        175
  14.9379        160
  14.9565        156
  14.9751        168
  14.9937        145
  15.0122        172
  15.0308        168
  15.0494        161
  15.0680        171
  15.0866        154
  15.1051        162
  15.1237        164
  15.1423        162
  15.1609        144
  15.1794        166
  15.1980        147
  15.2166        169
  15.2352        177
  15.2537        168
  15.2723        158
  15.2909        158
  15.3095        160
  15.3280        166
  15.3466        162
  15.3652        170
  15.3838        177
  15.4023        171
  15.4209        173
  15.4395        181
  15.4581        175
  15.4766        170
  15.4952        191
  15.5138        171
  15.5324        184
  15.5509        177
  15.5695        180
  15.5881        168
  15.6067        172
  15.6252        144
  15.6438        165
  15.6624        168
  15.6810        187
  15.6995        148
  15.7181        161
  15.7367        161
  15.7553        143
  15.7738        161
  15.7924        159
  15.8110        159
  15.8296        139
  15.8482        154
  15.8667        144
  15.8853        173
  15.9039        149
  15.9225        156
  15.9410        157
  15.9596        185
  15.9782        162
  15.9968        162
  16.0153        175
  16.0339        163
  16.0525        148
  16.0711        157
  16.0896        164
  16.1082        172
  16.1268        162
  16.1454        159
  16.1639        162
  16.1825        163
  16.2011        148
  16.2197        171
  16.2382        175
  16.2568        143
  16.2754        157
  16.2940        138
  16.3125        166
  16.3311        160
  16.3497        168
  16.3683        142
  16.3868        145
  16.4054        157
  16.4240        163
  16.4426        169
  16.4611        155
  16.4797        169
  16.4983        182
  16.5169        164
  16.5354        171
  16.5540        181
  16.5726        158
  16.5912        171
  16.6097        161
  16.6283        144
  16.6469        176
  16.6655        145
  16.6841        155
  16.7026        168
  16.7212        156
  16.7398        154
  16.7584        173
  16.7769        152
  16.7955        154
  16.8141        145
  16.8327        140
  16.8512        166
  16.8698        165
  16.8884        158
  16.9070        151
  16.9255        167
  16.9441        151
  16.9627        170
  16.9813        168
  16.9998        167
  17.0184        160
  17.0370        172
  17.0556        155
  17.0741        184
  17.0927        143
  17.1113        167
  17.1299        161
  17.1484        177
  17.1670        161
  17.1856        154
  17.2042        140
  17.2227        171
  17.2413        150
  17.2599        165
  17.2785        151
  17.2970        151
  17.3156        165
  17.3342        143
  17.3528        173
  17.3713        183
  17.3899        150
  17.4085        156
  17.4271        144
  17.4457        143
  17.4642        167
  17.4828        156
  17.5014        176
  17.5200        152
  17.5385        165
  17.5571        158
  17.5757        150
  17.5943        159
  17.6128        171
  17.6314        158
  17.6500        157
  17.6686        148
  17.6871        187
  17.7057        154
  17.7243        165
  17.7429        173
  17.7614        155
  17.7800        146
  17.7986        185
  17.8172        168
  17.8357        162
  17.8543        171
  17.8729        167
  17.8915        169
  17.9100        165
  17.9286        187
  17.9472        164
  17.9658        169
  17.9843        170
  18.0029        183
  18.0215        196
  18.0401        166
  18.0586        156
  18.0772        161
  18.0958        179
  18.1144        160
  18.1329        180
  18.1515        160
  18.1701        159
  18.1887        180
  18.2073        162
  18.2258        168
  18.2444        161
  18.2630        158
  18.2816        171
  18.3001        177
  18.3187        163
  18.3373        165
  18.3559        169
  18.3744        164
  18.3930        144
  18.4116        145
  18.4302        172
  18.4487        173
  18.4673        164
  18.4859        162
  18.5045        154
  18.5230        172
  18.5416        172
  18.5602        173
  18.5788        171
  18.5973        151
  18.6159        194
  18.6345        171
  18.6531        175
  18.6716        156
  18.6902        172
  18.7088        182
  18.7274        164
  18.7459        168
  18.7645        169
  18.7831        162
  18.8017        160
  18.8202        147
  18.8388        192
  18.8574        150
  18.8760        164
  18.8945        166
  18.9131        171
  18.9317        193
  18.9503        178
  18.9689        183
  18.9874        157
  19.0060        197
  19.0246        145
  19.0432        142
  19.0617        177
  19.0803        169
  19.0989        154
  19.1175        185
  19.1360        147
  19.1546        180
  19.1732        170
  19.1918        176
  19.2103        151
  19.2289        173
  19.2475        168
  19.2661        190
  19.2846        178
  19.3032        167
  19.3218        185
  19.3404        187
  19.3589        137
  19.3775        175
  19.3961        177
  19.4147        173
  19.4332        170
  19.4518        183
  19.4704        190
  19.4890        170
  19.5075        164
  19.5261        179
  19.5447        210
  19.5633        193
  19.5818        174
  19.6004        165
  19.6190        181
  19.6376        170
  19.6561        181
  19.6747        181
  19.6933        170
  19.7119        167
  19.7305        158
  19.7490        192
  19.7676        169
  19.7862        178
  19.8048        177
  19.8233        178
  19.8419        170
  19.8605        179
  19.8791        163
  19.8976        173
  19.9162        174
  19.9348        213
  19.9534        198
  19.9719        178
  19.9905        149
  20.0091        175
  20.0277        183
  20.0462        174
  20.0648        185
  20.0834        179
  20.1020        162
  20.1205        183
  20.1391        159
  20.1577        184
  20.1763        204
  20.1948        201
  20.2134        172
  20.2320        193
  20.2506        168
  20.2691        204
  20.2877        172
  20.3063        193
  20.3249        185
  20.3434        178
  20.3620        194
  20.3806        188
  20.3992        188
  20.4177        195
  20.4363        191
  20.4549        223
  20.4735        194
