; (content of file Y:\Sam\Apurva-07-20-2022\puck4\ML_20220718_20_SJD_0_LaB6-2min.raw)
_FILEVERSION = 3
_SAMPLE = ML_20220718_20_SJD_0_LaB6-2min
_+SAMPLE = 
_SITE = USA
_USER = Administrator
_GONIOMETER_CODE = 20
; Goniometer : D8 theta/2theta, stage : Unknown
_ATTACHMENTS_CODE = 0
_GONIOMETER_RADIUS = 200.5
_FIXED_DIVSLIT = 0.6
_FIXED_SAMPLESLIT = 0
_SOLLER_SLITS = 2
_FIXED_DETSLIT = 9.55
_MONOCHROMATOR = 0
; Incident beam monochromator : None
_SOLLER_SLITS_2 = N
_THIN_FILM = N
_BETA_FILTER = Y
_FIXED_ANTISLIT = 5.89
_ANALYZER_CODE = 0
; Received beam analyzer : None
_DATEMEASURED = "26-Jul-2022 09:37:31"
_WL_UNIT = A
_WL1 = 1.5406
_WL2 = 1.54439
_WL3 = 1.39222
_WLRATIO = 0.5
_ANODE = Cu
_V4_INF_CREATOR = XRDWizard
_V4_INF_CREATOR_VERSION = V2.9.0.22
_V4_INF_WIZARD_VERSION = V2.9.0.22
_V4_INF_WIZARD_ADDINS = V2.9.0.22
_V4_INF_WIZARD_DOCTYPE = XRD
_V4_INF_OSUSER = McQueenLab
_V4_INF_USER = Administrator
_V4_INF_SITE = USA
_V4_INF_SAMPLEID = ML_20220718_20_SJD_0_LaB6-2min

; Data for range 1
_DRIVE = COUPLED
_STEPTIME = 5.64
_STEPSIZE = 0.0185756
_STEPMODE = C
_START = 5
_THETA = 2.5
_2THETA = 5
_KHI = 0
_PHI = 0
_X = 0
_Y = 0
_Z = 0
_DETECTOR = 5
; Detector type : Unknown
_DETECTORSLIT = unkn
_AUX1 = 0
_AUX2 = 0
_AUX3 = 0
_TIMESTARTED = 15
_TEMP_RATE = -1
_TEMP_DELAY = -1
_KV = 40
_MA = 40
_RANGE_WL = 1.5406
_3DPLANE = 0
_V4_ADDITIONALDETECTOR = 257
_V4_PSD2THETA = 3.4139
_V4_PSDCHANNEL1 = 0
_V4_PSDAPERTURE = 12.68
_V4_PSDTYPE = 5
_V4_PSDFIXED = 0
_V4_COUNTERS_MASK = 4096
_V4_DRIVES_MASK = 0
_V4_ENCODERS_MASK = 0
_2THETACOUNTS = 1
; 2THETA  PSD
   5.0000        124
   5.0186        127
   5.0372        141
   5.0557        129
   5.0743        128
   5.0929        134
   5.1115        124
   5.1300        118
   5.1486        108
   5.1672        125
   5.1858        119
   5.2043        118
   5.2229        127
   5.2415        128
   5.2601        136
   5.2786        114
   5.2972        123
   5.3158        126
   5.3344        121
   5.3529        110
   5.3715        107
   5.3901        135
   5.4087        116
   5.4272        107
   5.4458        129
   5.4644        108
   5.4830        107
   5.5015        124
   5.5201        123
   5.5387         97
   5.5573         94
   5.5758        118
   5.5944        111
   5.6130         95
   5.6316        100
   5.6501        115
   5.6687        104
   5.6873        103
   5.7059        112
   5.7244        115
   5.7430         92
   5.7616        126
   5.7802        116
   5.7988        104
   5.8173         99
   5.8359        106
   5.8545        114
   5.8731        100
   5.8916        110
   5.9102        107
   5.9288         84
   5.9474         96
   5.9659         82
   5.9845        108
   6.0031         83
   6.0217        102
   6.0402         97
   6.0588         98
   6.0774         84
   6.0960        112
   6.1145         90
   6.1331         84
   6.1517         91
   6.1703         98
   6.1888         91
   6.2074         95
   6.2260        100
   6.2446         88
   6.2631         75
   6.2817        102
   6.3003         95
   6.3189         91
   6.3374        101
   6.3560         82
   6.3746         92
   6.3932         79
   6.4117        101
   6.4303         98
   6.4489         97
   6.4675         76
   6.4860        103
   6.5046         88
   6.5232         85
   6.5418         84
   6.5604         92
   6.5789         75
   6.5975         90
   6.6161        109
   6.6347         93
   6.6532         90
   6.6718         78
   6.6904         91
   6.7090         84
   6.7275         77
   6.7461         96
   6.7647         97
   6.7833         91
   6.8018         83
   6.8204        105
   6.8390         90
   6.8576         73
   6.8761         97
   6.8947        104
   6.9133         88
   6.9319         82
   6.9504         70
   6.9690         74
   6.9876         81
   7.0062         75
   7.0247         81
   7.0433         93
   7.0619         75
   7.0805         80
   7.0990         85
   7.1176         79
   7.1362         75
   7.1548         98
   7.1733         90
   7.1919         72
   7.2105         77
   7.2291         81
   7.2476         65
   7.2662         81
   7.2848         84
   7.3034         71
   7.3220         74
   7.3405         79
   7.3591         69
   7.3777         71
   7.3963         58
   7.4148         92
   7.4334         76
   7.4520         79
   7.4706         82
   7.4891         90
   7.5077         67
   7.5263         87
   7.5449         83
   7.5634         80
   7.5820         81
   7.6006         70
   7.6192         91
   7.6377         93
   7.6563         77
   7.6749         79
   7.6935         95
   7.7120         83
   7.7306         82
   7.7492         94
   7.7678         87
   7.7863         80
   7.8049        107
   7.8235         82
   7.8421         90
   7.8606         82
   7.8792         90
   7.8978         73
   7.9164         87
   7.9349         77
   7.9535         91
   7.9721        101
   7.9907        103
   8.0092         79
   8.0278         96
   8.0464         91
   8.0650         94
   8.0835         91
   8.1021         80
   8.1207        101
   8.1393        108
   8.1579         95
   8.1764         90
   8.1950         94
   8.2136        106
   8.2322         95
   8.2507         81
   8.2693        102
   8.2879         87
   8.3065         86
   8.3250         92
   8.3436        113
   8.3622         91
   8.3808        101
   8.3993         85
   8.4179         97
   8.4365        102
   8.4551        110
   8.4736        106
   8.4922         99
   8.5108        114
   8.5294        103
   8.5479        104
   8.5665        100
   8.5851         93
   8.6037        108
   8.6222        101
   8.6408        105
   8.6594         83
   8.6780        116
   8.6965         85
   8.7151         82
   8.7337         94
   8.7523         88
   8.7708        112
   8.7894        107
   8.8080        103
   8.8266        101
   8.8451        101
   8.8637        108
   8.8823         95
   8.9009        115
   8.9195        109
   8.9380        107
   8.9566         90
   8.9752        102
   8.9938        110
   9.0123        109
   9.0309        105
   9.0495        113
   9.0681        109
   9.0866        117
   9.1052        100
   9.1238        100
   9.1424        111
   9.1609         94
   9.1795        117
   9.1981        115
   9.2167        115
   9.2352         83
   9.2538        113
   9.2724        113
   9.2910        105
   9.3095        109
   9.3281         97
   9.3467        114
   9.3653         97
   9.3838        101
   9.4024        118
   9.4210        108
   9.4396        103
   9.4581        102
   9.4767        107
   9.4953         98
   9.5139        110
   9.5324        124
   9.5510        112
   9.5696        119
   9.5882        121
   9.6067        103
   9.6253        109
   9.6439        131
   9.6625        129
   9.6811        107
   9.6996         95
   9.7182        116
   9.7368        116
   9.7554        134
   9.7739        128
   9.7925        107
   9.8111        126
   9.8297        122
   9.8482        119
   9.8668        119
   9.8854        106
   9.9040        135
   9.9225        130
   9.9411        103
   9.9597        117
   9.9783        119
   9.9968        102
  10.0154        116
  10.0340        141
  10.0526        113
  10.0711        135
  10.0897        109
  10.1083        126
  10.1269        123
  10.1454        140
  10.1640        110
  10.1826        123
  10.2012        123
  10.2197        109
  10.2383        118
  10.2569        132
  10.2755        118
  10.2940        127
  10.3126        134
  10.3312        109
  10.3498        117
  10.3683        138
  10.3869         95
  10.4055        142
  10.4241        131
  10.4427        123
  10.4612        131
  10.4798        110
  10.4984        120
  10.5170        126
  10.5355        150
  10.5541        124
  10.5727        106
  10.5913        121
  10.6098        127
  10.6284        134
  10.6470        127
  10.6656        119
  10.6841        129
  10.7027        112
  10.7213        123
  10.7399        117
  10.7584        106
  10.7770        119
  10.7956        132
  10.8142        129
  10.8327        103
  10.8513        136
  10.8699        112
  10.8885        127
  10.9070        116
  10.9256        132
  10.9442        118
  10.9628        121
  10.9813        118
  10.9999        120
  11.0185        122
  11.0371        117
  11.0556        120
  11.0742        113
  11.0928        117
  11.1114        109
  11.1299        142
  11.1485        114
  11.1671        113
  11.1857        113
  11.2043        110
  11.2228        130
  11.2414        129
  11.2600        127
  11.2786        118
  11.2971        114
  11.3157        126
  11.3343        112
  11.3529        111
  11.3714        116
  11.3900        125
  11.4086        110
  11.4272        102
  11.4457        121
  11.4643        128
  11.4829        119
  11.5015        100
  11.5200        106
  11.5386        134
  11.5572        123
  11.5758        117
  11.5943        118
  11.6129        109
  11.6315        115
  11.6501        120
  11.6686        118
  11.6872         99
  11.7058        102
  11.7244        113
  11.7429        118
  11.7615        124
  11.7801        135
  11.7987        144
  11.8172        108
  11.8358        123
  11.8544        116
  11.8730        106
  11.8915        133
  11.9101        129
  11.9287        122
  11.9473         95
  11.9659        104
  11.9844        122
  12.0030        105
  12.0216        134
  12.0402         99
  12.0587        105
  12.0773        126
  12.0959        111
  12.1145        128
  12.1330        103
  12.1516        103
  12.1702        113
  12.1888        107
  12.2073        118
  12.2259        105
  12.2445        111
  12.2631         90
  12.2816        125
  12.3002        100
  12.3188        107
  12.3374        116
  12.3559        102
  12.3745        108
  12.3931        126
  12.4117        106
  12.4302        114
  12.4488        119
  12.4674         93
  12.4860        115
  12.5045        107
  12.5231        101
  12.5417        109
  12.5603        110
  12.5788        110
  12.5974        104
  12.6160        100
  12.6346        114
  12.6531        123
  12.6717        101
  12.6903        103
  12.7089         85
  12.7274         99
  12.7460        104
  12.7646        100
  12.7832        104
  12.8018        127
  12.8203        112
  12.8389        111
  12.8575         87
  12.8761        119
  12.8946        100
  12.9132         97
  12.9318        119
  12.9504         85
  12.9689        111
  12.9875        108
  13.0061         99
  13.0247         94
  13.0432        106
  13.0618         88
  13.0804        109
  13.0990         95
  13.1175         95
  13.1361        109
  13.1547         97
  13.1733        115
  13.1918        101
  13.2104         96
  13.2290         88
  13.2476         93
  13.2661         93
  13.2847         88
  13.3033         85
  13.3219        110
  13.3404         91
  13.3590        107
  13.3776        110
  13.3962        102
  13.4147         85
  13.4333        115
  13.4519         88
  13.4705         91
  13.4890         84
  13.5076        104
  13.5262        105
  13.5448         97
  13.5634         89
  13.5819        108
  13.6005        103
  13.6191         96
  13.6377         96
  13.6562         92
  13.6748        100
  13.6934         96
  13.7120        106
  13.7305         94
  13.7491         83
  13.7677         78
  13.7863         94
  13.8048        103
  13.8234         98
  13.8420        101
  13.8606         81
  13.8791        102
  13.8977         96
  13.9163         83
  13.9349        103
  13.9534         94
  13.9720        108
  13.9906         92
  14.0092         99
  14.0277         94
  14.0463         95
  14.0649         83
  14.0835         95
  14.1020         92
  14.1206        112
  14.1392         87
  14.1578         95
  14.1763         92
  14.1949         73
  14.2135         85
  14.2321         93
  14.2506         98
  14.2692         92
  14.2878         75
  14.3064         74
  14.3250         88
  14.3435         89
  14.3621         77
  14.3807         92
  14.3993         94
  14.4178         81
  14.4364         73
  14.4550         86
  14.4736         81
  14.4921         93
  14.5107         89
  14.5293         80
  14.5479         60
  14.5664        101
  14.5850         88
  14.6036         85
  14.6222         83
  14.6407         91
  14.6593         96
  14.6779         91
  14.6965         75
  14.7150         97
  14.7336         98
  14.7522         85
  14.7708         94
  14.7893        116
  14.8079         91
  14.8265         78
  14.8451         86
  14.8636         86
  14.8822         75
  14.9008         84
  14.9194        102
  14.9379         79
  14.9565        101
  14.9751         88
  14.9937         98
  15.0122         79
  15.0308         72
  15.0494         72
  15.0680         91
  15.0866         79
  15.1051         88
  15.1237         82
  15.1423         73
  15.1609         79
  15.1794         89
  15.1980         75
  15.2166         92
  15.2352         82
  15.2537         87
  15.2723         70
  15.2909         70
  15.3095         94
  15.3280         82
  15.3466         84
  15.3652         60
  15.3838         83
  15.4023         84
  15.4209         83
  15.4395         79
  15.4581         78
  15.4766         81
  15.4952         84
  15.5138         88
  15.5324         79
  15.5509         78
  15.5695         84
  15.5881         96
  15.6067         62
  15.6252         80
  15.6438         67
  15.6624         91
  15.6810         77
  15.6995         98
  15.7181         81
  15.7367         81
  15.7553         76
  15.7738         66
  15.7924         79
  15.8110         77
  15.8296         97
  15.8482         88
  15.8667         72
  15.8853         80
  15.9039         89
  15.9225         76
  15.9410         70
  15.9596         69
  15.9782         81
  15.9968         82
  16.0153         81
  16.0339         74
  16.0525         86
  16.0711         87
  16.0896         68
  16.1082         85
  16.1268         85
  16.1454         75
  16.1639         78
  16.1825         76
  16.2011         94
  16.2197         86
  16.2382         93
  16.2568         86
  16.2754         72
  16.2940         79
  16.3125         94
  16.3311         83
  16.3497         84
  16.3683         79
  16.3868         80
  16.4054         71
  16.4240         80
  16.4426         82
  16.4611         83
  16.4797         70
  16.4983         63
  16.5169         89
  16.5354         70
  16.5540         98
  16.5726         77
  16.5912         87
  16.6097         91
  16.6283         79
  16.6469         83
  16.6655         82
  16.6841         69
  16.7026         80
  16.7212         86
  16.7398         87
  16.7584         86
  16.7769         77
  16.7955         88
  16.8141         82
  16.8327         72
  16.8512         76
  16.8698         78
  16.8884         93
  16.9070         86
  16.9255         68
  16.9441         94
  16.9627         84
  16.9813         78
  16.9998         85
  17.0184         92
  17.0370         69
  17.0556         98
  17.0741         94
  17.0927         89
  17.1113         85
  17.1299         90
  17.1484         75
  17.1670         76
  17.1856         78
  17.2042         81
  17.2227         76
  17.2413         94
  17.2599         71
  17.2785         78
  17.2970         71
  17.3156         73
  17.3342         82
  17.3528         76
  17.3713         71
  17.3899         81
  17.4085         85
  17.4271         94
  17.4457         78
  17.4642         73
  17.4828         72
  17.5014         62
  17.5200         96
  17.5385         61
  17.5571         86
  17.5757         79
  17.5943        101
  17.6128         85
  17.6314         87
  17.6500        104
  17.6686         85
  17.6871         83
  17.7057         94
  17.7243         82
  17.7429         77
  17.7614         75
  17.7800         74
  17.7986         85
  17.8172         73
  17.8357         87
  17.8543         88
  17.8729         69
  17.8915         75
  17.9100         93
  17.9286         74
  17.9472         83
  17.9658         77
  17.9843         95
  18.0029         80
  18.0215         70
  18.0401         63
  18.0586         88
  18.0772         76
  18.0958         95
  18.1144         84
  18.1329         86
  18.1515         79
  18.1701         76
  18.1887         67
  18.2073         95
  18.2258         66
  18.2444         88
  18.2630         78
  18.2816         84
  18.3001         76
  18.3187         80
  18.3373         82
  18.3559        103
  18.3744         92
  18.3930         84
  18.4116         66
  18.4302         83
  18.4487         72
  18.4673         89
  18.4859         83
  18.5045         77
  18.5230         80
  18.5416         94
  18.5602         79
  18.5788         87
  18.5973         76
  18.6159         85
  18.6345         75
  18.6531         80
  18.6716         85
  18.6902         89
  18.7088         88
  18.7274         91
  18.7459         77
  18.7645         89
  18.7831         69
  18.8017         78
  18.8202         99
  18.8388         74
  18.8574         79
  18.8760         91
  18.8945         72
  18.9131         96
  18.9317         88
  18.9503         79
  18.9689         69
  18.9874         71
  19.0060         81
  19.0246         76
  19.0432         80
  19.0617         68
  19.0803         69
  19.0989         70
  19.1175         83
  19.1360         98
  19.1546         91
  19.1732         80
  19.1918         92
  19.2103         86
  19.2289         87
  19.2475         68
  19.2661         75
  19.2846         75
  19.3032         94
  19.3218         88
  19.3404        101
  19.3589         80
  19.3775         95
  19.3961         74
  19.4147         93
  19.4332         71
  19.4518         89
  19.4704         80
  19.4890         79
  19.5075         91
  19.5261         98
  19.5447         81
  19.5633         80
  19.5818         90
  19.6004        112
  19.6190         70
  19.6376        102
  19.6561         70
  19.6747         71
  19.6933         79
  19.7119        103
  19.7305         94
  19.7490         84
  19.7676         99
  19.7862        100
  19.8048         84
  19.8233         92
  19.8419         92
  19.8605         81
  19.8791         80
  19.8976        114
  19.9162         78
  19.9348         82
  19.9534         77
  19.9719         92
  19.9905         87
  20.0091        115
  20.0277         85
  20.0462        113
  20.0648         88
  20.0834         93
  20.1020         95
  20.1205         94
  20.1391         98
  20.1577         93
  20.1763         78
  20.1948         98
  20.2134         66
  20.2320         96
  20.2506         88
  20.2691         88
  20.2877         93
  20.3063         82
  20.3249         84
  20.3434         89
  20.3620         99
  20.3806         86
  20.3992         99
  20.4177         99
  20.4363        106
  20.4549         99
  20.4735         98
