; (content of file Y:\Sam\Apurva-07-20-2022\puck4\ML_20220718_49_SJD_4_LaB6-4min.raw)
_FILEVERSION = 3
_SAMPLE = ML_20220718_49_SJD_4_LaB6-4min
_+SAMPLE = 
_SITE = USA
_USER = Administrator
_GONIOMETER_CODE = 20
; Goniometer : D8 theta/2theta, stage : Unknown
_ATTACHMENTS_CODE = 0
_GONIOMETER_RADIUS = 200.5
_FIXED_DIVSLIT = 0.6
_FIXED_SAMPLESLIT = 0
_SOLLER_SLITS = 2
_FIXED_DETSLIT = 9.55
_MONOCHROMATOR = 0
; Incident beam monochromator : None
_SOLLER_SLITS_2 = N
_THIN_FILM = N
_BETA_FILTER = Y
_FIXED_ANTISLIT = 5.89
_ANALYZER_CODE = 0
; Received beam analyzer : None
_DATEMEASURED = "26-Jul-2022 13:56:19"
_WL_UNIT = A
_WL1 = 1.5406
_WL2 = 1.54439
_WL3 = 1.39222
_WLRATIO = 0.5
_ANODE = Cu
_V4_INF_CREATOR = XRDWizard
_V4_INF_CREATOR_VERSION = V2.9.0.22
_V4_INF_WIZARD_VERSION = V2.9.0.22
_V4_INF_WIZARD_ADDINS = V2.9.0.22
_V4_INF_WIZARD_DOCTYPE = XRD
_V4_INF_OSUSER = McQueenLab
_V4_INF_USER = Administrator
_V4_INF_SITE = USA
_V4_INF_SAMPLEID = ML_20220718_49_SJD_4_LaB6-4min

; Data for range 1
_DRIVE = COUPLED
_STEPTIME = 11.28
_STEPSIZE = 0.0185756
_STEPMODE = C
_START = 5
_THETA = 2.5
_2THETA = 5
_KHI = 0
_PHI = 0
_X = 0
_Y = 0
_Z = 0
_DETECTOR = 5
; Detector type : Unknown
_DETECTORSLIT = unkn
_AUX1 = 0
_AUX2 = 0
_AUX3 = 0
_TIMESTARTED = 15
_TEMP_RATE = -1
_TEMP_DELAY = -1
_KV = 40
_MA = 40
_RANGE_WL = 1.5406
_3DPLANE = 0
_V4_ADDITIONALDETECTOR = 257
_V4_PSD2THETA = 3.3663
_V4_PSDCHANNEL1 = 0
_V4_PSDAPERTURE = 12.68
_V4_PSDTYPE = 5
_V4_PSDFIXED = 0
_V4_COUNTERS_MASK = 4096
_V4_DRIVES_MASK = 0
_V4_ENCODERS_MASK = 0
_2THETACOUNTS = 1
; 2THETA  PSD
   5.0000        247
   5.0186        271
   5.0372        267
   5.0557        257
   5.0743        269
   5.0929        244
   5.1115        212
   5.1300        230
   5.1486        260
   5.1672        215
   5.1858        247
   5.2043        252
   5.2229        243
   5.2415        241
   5.2601        237
   5.2786        248
   5.2972        257
   5.3158        253
   5.3344        244
   5.3529        241
   5.3715        220
   5.3901        219
   5.4087        233
   5.4272        223
   5.4458        226
   5.4644        215
   5.4830        255
   5.5015        220
   5.5201        246
   5.5387        232
   5.5573        235
   5.5758        220
   5.5944        237
   5.6130        243
   5.6316        238
   5.6501        238
   5.6687        210
   5.6873        208
   5.7059        215
   5.7244        227
   5.7430        204
   5.7616        202
   5.7802        207
   5.7988        206
   5.8173        224
   5.8359        204
   5.8545        221
   5.8731        222
   5.8916        209
   5.9102        214
   5.9288        206
   5.9474        190
   5.9659        184
   5.9845        198
   6.0031        188
   6.0217        202
   6.0402        195
   6.0588        195
   6.0774        173
   6.0960        183
   6.1145        216
   6.1331        204
   6.1517        193
   6.1703        180
   6.1888        191
   6.2074        183
   6.2260        173
   6.2446        211
   6.2631        201
   6.2817        178
   6.3003        165
   6.3189        216
   6.3374        184
   6.3560        198
   6.3746        198
   6.3932        171
   6.4117        193
   6.4303        200
   6.4489        193
   6.4675        186
   6.4860        178
   6.5046        182
   6.5232        198
   6.5418        188
   6.5604        180
   6.5789        189
   6.5975        197
   6.6161        169
   6.6347        170
   6.6532        153
   6.6718        160
   6.6904        199
   6.7090        179
   6.7275        163
   6.7461        152
   6.7647        172
   6.7833        201
   6.8018        143
   6.8204        182
   6.8390        170
   6.8576        181
   6.8761        196
   6.8947        156
   6.9133        164
   6.9319        175
   6.9504        144
   6.9690        177
   6.9876        174
   7.0062        169
   7.0247        161
   7.0433        188
   7.0619        157
   7.0805        183
   7.0990        166
   7.1176        162
   7.1362        192
   7.1548        167
   7.1733        155
   7.1919        175
   7.2105        129
   7.2291        152
   7.2476        157
   7.2662        174
   7.2848        180
   7.3034        155
   7.3220        143
   7.3405        153
   7.3591        148
   7.3777        178
   7.3963        162
   7.4148        176
   7.4334        177
   7.4520        175
   7.4706        170
   7.4891        166
   7.5077        160
   7.5263        181
   7.5449        182
   7.5634        166
   7.5820        158
   7.6006        175
   7.6192        178
   7.6377        179
   7.6563        168
   7.6749        193
   7.6935        182
   7.7120        152
   7.7306        167
   7.7492        197
   7.7678        199
   7.7863        180
   7.8049        166
   7.8235        157
   7.8421        172
   7.8606        211
   7.8792        183
   7.8978        176
   7.9164        166
   7.9349        201
   7.9535        162
   7.9721        193
   7.9907        183
   8.0092        204
   8.0278        194
   8.0464        180
   8.0650        189
   8.0835        175
   8.1021        175
   8.1207        206
   8.1393        204
   8.1579        173
   8.1764        214
   8.1950        184
   8.2136        165
   8.2322        204
   8.2507        208
   8.2693        195
   8.2879        195
   8.3065        169
   8.3250        193
   8.3436        203
   8.3622        198
   8.3808        198
   8.3993        204
   8.4179        193
   8.4365        199
   8.4551        176
   8.4736        189
   8.4922        205
   8.5108        175
   8.5294        205
   8.5479        207
   8.5665        186
   8.5851        201
   8.6037        191
   8.6222        209
   8.6408        191
   8.6594        192
   8.6780        200
   8.6965        190
   8.7151        237
   8.7337        188
   8.7523        198
   8.7708        207
   8.7894        221
   8.8080        198
   8.8266        200
   8.8451        215
   8.8637        203
   8.8823        222
   8.9009        173
   8.9195        208
   8.9380        197
   8.9566        200
   8.9752        219
   8.9938        207
   9.0123        236
   9.0309        230
   9.0495        217
   9.0681        216
   9.0866        216
   9.1052        212
   9.1238        241
   9.1424        195
   9.1609        217
   9.1795        196
   9.1981        240
   9.2167        244
   9.2352        208
   9.2538        222
   9.2724        200
   9.2910        216
   9.3095        249
   9.3281        235
   9.3467        212
   9.3653        216
   9.3838        211
   9.4024        211
   9.4210        226
   9.4396        239
   9.4581        233
   9.4767        205
   9.4953        199
   9.5139        231
   9.5324        207
   9.5510        192
   9.5696        198
   9.5882        216
   9.6067        217
   9.6253        217
   9.6439        252
   9.6625        204
   9.6811        229
   9.6996        232
   9.7182        240
   9.7368        225
   9.7554        245
   9.7739        257
   9.7925        243
   9.8111        233
   9.8297        219
   9.8482        227
   9.8668        225
   9.8854        243
   9.9040        258
   9.9225        266
   9.9411        229
   9.9597        237
   9.9783        229
   9.9968        273
  10.0154        221
  10.0340        254
  10.0526        253
  10.0711        270
  10.0897        226
  10.1083        217
  10.1269        244
  10.1454        251
  10.1640        224
  10.1826        248
  10.2012        197
  10.2197        234
  10.2383        234
  10.2569        221
  10.2755        244
  10.2940        244
  10.3126        244
  10.3312        256
  10.3498        243
  10.3683        238
  10.3869        236
  10.4055        243
  10.4241        224
  10.4427        236
  10.4612        283
  10.4798        219
  10.4984        218
  10.5170        243
  10.5355        228
  10.5541        230
  10.5727        259
  10.5913        241
  10.6098        235
  10.6284        230
  10.6470        255
  10.6656        246
  10.6841        238
  10.7027        223
  10.7213        235
  10.7399        239
  10.7584        237
  10.7770        253
  10.7956        227
  10.8142        225
  10.8327        223
  10.8513        240
  10.8699        240
  10.8885        221
  10.9070        225
  10.9256        256
  10.9442        248
  10.9628        253
  10.9813        279
  10.9999        228
  11.0185        233
  11.0371        222
  11.0556        244
  11.0742        246
  11.0928        252
  11.1114        213
  11.1299        224
  11.1485        257
  11.1671        237
  11.1857        249
  11.2043        227
  11.2228        233
  11.2414        230
  11.2600        233
  11.2786        211
  11.2971        251
  11.3157        204
  11.3343        245
  11.3529        243
  11.3714        269
  11.3900        239
  11.4086        235
  11.4272        228
  11.4457        228
  11.4643        241
  11.4829        263
  11.5015        233
  11.5200        205
  11.5386        252
  11.5572        251
  11.5758        239
  11.5943        228
  11.6129        229
  11.6315        247
  11.6501        223
  11.6686        244
  11.6872        252
  11.7058        249
  11.7244        247
  11.7429        221
  11.7615        219
  11.7801        211
  11.7987        256
  11.8172        218
  11.8358        236
  11.8544        210
  11.8730        266
  11.8915        222
  11.9101        216
  11.9287        238
  11.9473        238
  11.9659        229
  11.9844        220
  12.0030        199
  12.0216        219
  12.0402        238
  12.0587        215
  12.0773        211
  12.0959        225
  12.1145        261
  12.1330        206
  12.1516        232
  12.1702        187
  12.1888        239
  12.2073        221
  12.2259        246
  12.2445        231
  12.2631        243
  12.2816        209
  12.3002        213
  12.3188        211
  12.3374        212
  12.3559        210
  12.3745        231
  12.3931        224
  12.4117        207
  12.4302        231
  12.4488        240
  12.4674        209
  12.4860        214
  12.5045        267
  12.5231        237
  12.5417        208
  12.5603        242
  12.5788        233
  12.5974        200
  12.6160        243
  12.6346        231
  12.6531        240
  12.6717        200
  12.6903        199
  12.7089        220
  12.7274        235
  12.7460        190
  12.7646        240
  12.7832        241
  12.8018        209
  12.8203        191
  12.8389        208
  12.8575        229
  12.8761        218
  12.8946        231
  12.9132        205
  12.9318        186
  12.9504        210
  12.9689        190
  12.9875        216
  13.0061        179
  13.0247        195
  13.0432        194
  13.0618        206
  13.0804        222
  13.0990        201
  13.1175        223
  13.1361        194
  13.1547        177
  13.1733        175
  13.1918        193
  13.2104        194
  13.2290        201
  13.2476        209
  13.2661        172
  13.2847        189
  13.3033        188
  13.3219        198
  13.3404        227
  13.3590        209
  13.3776        197
  13.3962        208
  13.4147        204
  13.4333        196
  13.4519        203
  13.4705        184
  13.4890        182
  13.5076        202
  13.5262        204
  13.5448        187
  13.5634        184
  13.5819        199
  13.6005        205
  13.6191        201
  13.6377        211
  13.6562        207
  13.6748        187
  13.6934        215
  13.7120        194
  13.7305        183
  13.7491        173
  13.7677        200
  13.7863        175
  13.8048        166
  13.8234        170
  13.8420        182
  13.8606        202
  13.8791        169
  13.8977        185
  13.9163        186
  13.9349        188
  13.9534        176
  13.9720        186
  13.9906        189
  14.0092        195
  14.0277        174
  14.0463        181
  14.0649        177
  14.0835        204
  14.1020        170
  14.1206        205
  14.1392        168
  14.1578        196
  14.1763        179
  14.1949        176
  14.2135        181
  14.2321        196
  14.2506        176
  14.2692        189
  14.2878        210
  14.3064        164
  14.3250        190
  14.3435        177
  14.3621        167
  14.3807        172
  14.3993        163
  14.4178        165
  14.4364        202
  14.4550        175
  14.4736        180
  14.4921        177
  14.5107        184
  14.5293        138
  14.5479        179
  14.5664        173
  14.5850        184
  14.6036        182
  14.6222        167
  14.6407        150
  14.6593        175
  14.6779        158
  14.6965        170
  14.7150        170
  14.7336        175
  14.7522        167
  14.7708        166
  14.7893        158
  14.8079        167
  14.8265        168
  14.8451        183
  14.8636        197
  14.8822        160
  14.9008        176
  14.9194        164
  14.9379        173
  14.9565        161
  14.9751        157
  14.9937        167
  15.0122        177
  15.0308        153
  15.0494        167
  15.0680        188
  15.0866        184
  15.1051        157
  15.1237        173
  15.1423        143
  15.1609        167
  15.1794        166
  15.1980        155
  15.2166        169
  15.2352        184
  15.2537        156
  15.2723        164
  15.2909        160
  15.3095        154
  15.3280        169
  15.3466        166
  15.3652        139
  15.3838        171
  15.4023        148
  15.4209        150
  15.4395        197
  15.4581        154
  15.4766        146
  15.4952        180
  15.5138        170
  15.5324        182
  15.5509        167
  15.5695        155
  15.5881        159
  15.6067        146
  15.6252        180
  15.6438        133
  15.6624        156
  15.6810        160
  15.6995        154
  15.7181        183
  15.7367        177
  15.7553        161
  15.7738        148
  15.7924        179
  15.8110        171
  15.8296        153
  15.8482        186
  15.8667        169
  15.8853        182
  15.9039        155
  15.9225        196
  15.9410        160
  15.9596        185
  15.9782        146
  15.9968        148
  16.0153        152
  16.0339        183
  16.0525        157
  16.0711        160
  16.0896        183
  16.1082        181
  16.1268        175
  16.1454        173
  16.1639        164
  16.1825        153
  16.2011        158
  16.2197        149
  16.2382        152
  16.2568        151
  16.2754        157
  16.2940        153
  16.3125        147
  16.3311        188
  16.3497        163
  16.3683        163
  16.3868        177
  16.4054        153
  16.4240        153
  16.4426        172
  16.4611        169
  16.4797        153
  16.4983        164
  16.5169        167
  16.5354        137
  16.5540        160
  16.5726        171
  16.5912        144
  16.6097        162
  16.6283        149
  16.6469        139
  16.6655        161
  16.6841        173
  16.7026        171
  16.7212        173
  16.7398        179
  16.7584        143
  16.7769        169
  16.7955        143
  16.8141        169
  16.8327        155
  16.8512        141
  16.8698        164
  16.8884        161
  16.9070        156
  16.9255        161
  16.9441        168
  16.9627        162
  16.9813        162
  16.9998        153
  17.0184        183
  17.0370        148
  17.0556        181
  17.0741        149
  17.0927        180
  17.1113        179
  17.1299        152
  17.1484        185
  17.1670        150
  17.1856        171
  17.2042        185
  17.2227        155
  17.2413        165
  17.2599        181
  17.2785        151
  17.2970        177
  17.3156        163
  17.3342        145
  17.3528        135
  17.3713        135
  17.3899        167
  17.4085        168
  17.4271        133
  17.4457        170
  17.4642        159
  17.4828        155
  17.5014        165
  17.5200        152
  17.5385        159
  17.5571        161
  17.5757        152
  17.5943        146
  17.6128        188
  17.6314        177
  17.6500        149
  17.6686        157
  17.6871        157
  17.7057        166
  17.7243        163
  17.7429        115
  17.7614        156
  17.7800        171
  17.7986        138
  17.8172        150
  17.8357        168
  17.8543        178
  17.8729        175
  17.8915        173
  17.9100        178
  17.9286        170
  17.9472        150
  17.9658        165
  17.9843        148
  18.0029        160
  18.0215        148
  18.0401        163
  18.0586        154
  18.0772        138
  18.0958        160
  18.1144        156
  18.1329        173
  18.1515        169
  18.1701        152
  18.1887        154
  18.2073        179
  18.2258        183
  18.2444        181
  18.2630        163
  18.2816        170
  18.3001        158
  18.3187        172
  18.3373        138
  18.3559        162
  18.3744        155
  18.3930        148
  18.4116        151
  18.4302        158
  18.4487        148
  18.4673        161
  18.4859        180
  18.5045        182
  18.5230        172
  18.5416        141
  18.5602        159
  18.5788        161
  18.5973        180
  18.6159        188
  18.6345        179
  18.6531        152
  18.6716        150
  18.6902        172
  18.7088        172
  18.7274        159
  18.7459        178
  18.7645        177
  18.7831        162
  18.8017        170
  18.8202        177
  18.8388        141
  18.8574        165
  18.8760        171
  18.8945        165
  18.9131        186
  18.9317        164
  18.9503        163
  18.9689        176
  18.9874        183
  19.0060        215
  19.0246        176
  19.0432        155
  19.0617        170
  19.0803        181
  19.0989        150
  19.1175        177
  19.1360        188
  19.1546        162
  19.1732        149
  19.1918        171
  19.2103        177
  19.2289        172
  19.2475        166
  19.2661        164
  19.2846        158
  19.3032        143
  19.3218        169
  19.3404        184
  19.3589        175
  19.3775        196
  19.3961        180
  19.4147        178
  19.4332        164
  19.4518        193
  19.4704        167
  19.4890        165
  19.5075        202
  19.5261        181
  19.5447        174
  19.5633        158
  19.5818        173
  19.6004        187
  19.6190        172
  19.6376        178
  19.6561        162
  19.6747        188
  19.6933        166
  19.7119        167
  19.7305        192
  19.7490        180
  19.7676        186
  19.7862        183
  19.8048        170
  19.8233        178
  19.8419        174
  19.8605        173
  19.8791        153
  19.8976        181
  19.9162        190
  19.9348        174
  19.9534        196
  19.9719        160
  19.9905        162
  20.0091        182
  20.0277        210
  20.0462        187
  20.0648        186
  20.0834        191
  20.1020        196
  20.1205        158
  20.1391        163
  20.1577        173
  20.1763        162
  20.1948        162
  20.2134        187
  20.2320        180
  20.2506        157
  20.2691        180
  20.2877        191
  20.3063        162
  20.3249        186
  20.3434        178
  20.3620        213
  20.3806        204
  20.3992        165
  20.4177        169
  20.4363        182
  20.4549        196
  20.4735        167
