; (content of file Y:\Sam\Apurva-07-20-2022\puck2\ML_20220720_17_SJD_0_LaB6-1min.raw)
_FILEVERSION = 3
_SAMPLE = ML_20220720_17_SJD_0_LaB6-1mi
_+SAMPLE = 
_SITE = USA
_USER = Administrator
_GONIOMETER_CODE = 20
; Goniometer : D8 theta/2theta, stage : Unknown
_ATTACHMENTS_CODE = 0
_GONIOMETER_RADIUS = 200.5
_FIXED_DIVSLIT = 0.6
_FIXED_SAMPLESLIT = 0
_SOLLER_SLITS = 2
_FIXED_DETSLIT = 9.55
_MONOCHROMATOR = 0
; Incident beam monochromator : None
_SOLLER_SLITS_2 = N
_THIN_FILM = N
_BETA_FILTER = Y
_FIXED_ANTISLIT = 5.89
_ANALYZER_CODE = 0
; Received beam analyzer : None
_DATEMEASURED = "25-Jul-2022 18:18:02"
_WL_UNIT = A
_WL1 = 1.5406
_WL2 = 1.54439
_WL3 = 1.39222
_WLRATIO = 0.5
_ANODE = Cu
_V4_INF_CREATOR = XRDWizard
_V4_INF_CREATOR_VERSION = V2.9.0.22
_V4_INF_WIZARD_VERSION = V2.9.0.22
_V4_INF_WIZARD_ADDINS = V2.9.0.22
_V4_INF_WIZARD_DOCTYPE = XRD
_V4_INF_OSUSER = McQueenLab
_V4_INF_USER = Administrator
_V4_INF_SITE = USA
_V4_INF_SAMPLEID = ML_20220720_17_SJD_0_LaB6-1mi

; Data for range 1
_DRIVE = COUPLED
_STEPTIME = 4.23
_STEPSIZE = 0.0185756
_STEPMODE = C
_START = 5
_THETA = 2.5
_2THETA = 5
_KHI = 0
_PHI = 0
_X = 0
_Y = 0
_Z = 0
_DETECTOR = 5
; Detector type : Unknown
_DETECTORSLIT = unkn
_AUX1 = 0
_AUX2 = 0
_AUX3 = 0
_TIMESTARTED = 15
_TEMP_RATE = -1
_TEMP_DELAY = -1
_KV = 40
_MA = 40
_RANGE_WL = 1.5406
_3DPLANE = 0
_V4_ADDITIONALDETECTOR = 257
_V4_PSD2THETA = 3.4387
_V4_PSDCHANNEL1 = 0
_V4_PSDAPERTURE = 12.68
_V4_PSDTYPE = 5
_V4_PSDFIXED = 0
_V4_COUNTERS_MASK = 4096
_V4_DRIVES_MASK = 0
_V4_ENCODERS_MASK = 0
_2THETACOUNTS = 1
; 2THETA  PSD
   5.0000        104
   5.0186         94
   5.0372        100
   5.0557         90
   5.0743        107
   5.0929        101
   5.1115        102
   5.1300         79
   5.1486         76
   5.1672         85
   5.1858         88
   5.2043         68
   5.2229        117
   5.2415         82
   5.2601        108
   5.2786         84
   5.2972         79
   5.3158         82
   5.3344         82
   5.3529         84
   5.3715         69
   5.3901         85
   5.4087        102
   5.4272         85
   5.4458         90
   5.4644         82
   5.4830         83
   5.5015         80
   5.5201         80
   5.5387         98
   5.5573         98
   5.5758         80
   5.5944         85
   5.6130         93
   5.6316         73
   5.6501         74
   5.6687         69
   5.6873         70
   5.7059         80
   5.7244         81
   5.7430         92
   5.7616         73
   5.7802         74
   5.7988         68
   5.8173         80
   5.8359         80
   5.8545         68
   5.8731         80
   5.8916         81
   5.9102         70
   5.9288         63
   5.9474         78
   5.9659         74
   5.9845         77
   6.0031         72
   6.0217         63
   6.0402         60
   6.0588         61
   6.0774         71
   6.0960         81
   6.1145         71
   6.1331         71
   6.1517         94
   6.1703         72
   6.1888         61
   6.2074         77
   6.2260         72
   6.2446         68
   6.2631         74
   6.2817         72
   6.3003         71
   6.3189         91
   6.3374         79
   6.3560         79
   6.3746         63
   6.3932         68
   6.4117         68
   6.4303         68
   6.4489         68
   6.4675         55
   6.4860         65
   6.5046         72
   6.5232         69
   6.5418         66
   6.5604         62
   6.5789         55
   6.5975         66
   6.6161         46
   6.6347         53
   6.6532         75
   6.6718         66
   6.6904         80
   6.7090         62
   6.7275         69
   6.7461         67
   6.7647         57
   6.7833         70
   6.8018         68
   6.8204         74
   6.8390         50
   6.8576         75
   6.8761         54
   6.8947         70
   6.9133         62
   6.9319         44
   6.9504         58
   6.9690         53
   6.9876         60
   7.0062         52
   7.0247         73
   7.0433         64
   7.0619         71
   7.0805         73
   7.0990         60
   7.1176         74
   7.1362         55
   7.1548         49
   7.1733         56
   7.1919         60
   7.2105         55
   7.2291         56
   7.2476         53
   7.2662         68
   7.2848         65
   7.3034         62
   7.3220         62
   7.3405         59
   7.3591         59
   7.3777         62
   7.3963         75
   7.4148         63
   7.4334         60
   7.4520         67
   7.4706         58
   7.4891         56
   7.5077         65
   7.5263         64
   7.5449         65
   7.5634         63
   7.5820         53
   7.6006         67
   7.6192         61
   7.6377         60
   7.6563         60
   7.6749         58
   7.6935         74
   7.7120         61
   7.7306         67
   7.7492         64
   7.7678         83
   7.7863         68
   7.8049         61
   7.8235         55
   7.8421         61
   7.8606         72
   7.8792         66
   7.8978         75
   7.9164         65
   7.9349         65
   7.9535         79
   7.9721         81
   7.9907         72
   8.0092         74
   8.0278         60
   8.0464         64
   8.0650         69
   8.0835         74
   8.1021         65
   8.1207         53
   8.1393         83
   8.1579         71
   8.1764         70
   8.1950         76
   8.2136         70
   8.2322         73
   8.2507         72
   8.2693         85
   8.2879         71
   8.3065         84
   8.3250         74
   8.3436         48
   8.3622         64
   8.3808         72
   8.3993         68
   8.4179         73
   8.4365         66
   8.4551         79
   8.4736         61
   8.4922         75
   8.5108         70
   8.5294         64
   8.5479         79
   8.5665         59
   8.5851         67
   8.6037         79
   8.6222         69
   8.6408         69
   8.6594         60
   8.6780         64
   8.6965         76
   8.7151         84
   8.7337         72
   8.7523         72
   8.7708         74
   8.7894         67
   8.8080         79
   8.8266         77
   8.8451         81
   8.8637         73
   8.8823         72
   8.9009         83
   8.9195         69
   8.9380         75
   8.9566         81
   8.9752         81
   8.9938         73
   9.0123         78
   9.0309         66
   9.0495         61
   9.0681         94
   9.0866         71
   9.1052         82
   9.1238         81
   9.1424         71
   9.1609         76
   9.1795         85
   9.1981         91
   9.2167         84
   9.2352         82
   9.2538         99
   9.2724         55
   9.2910         72
   9.3095         69
   9.3281         73
   9.3467         84
   9.3653         81
   9.3838         67
   9.4024         80
   9.4210         82
   9.4396         69
   9.4581         61
   9.4767         82
   9.4953         83
   9.5139         84
   9.5324         68
   9.5510         81
   9.5696         79
   9.5882         63
   9.6067         74
   9.6253         91
   9.6439         80
   9.6625         82
   9.6811         88
   9.6996         82
   9.7182        100
   9.7368         79
   9.7554         75
   9.7739         93
   9.7925         95
   9.8111         79
   9.8297         84
   9.8482         75
   9.8668         98
   9.8854         96
   9.9040         94
   9.9225         85
   9.9411         77
   9.9597         91
   9.9783         86
   9.9968         76
  10.0154         86
  10.0340         86
  10.0526         83
  10.0711         91
  10.0897         90
  10.1083         81
  10.1269         93
  10.1454         94
  10.1640         83
  10.1826        115
  10.2012         95
  10.2197         78
  10.2383         81
  10.2569         81
  10.2755         85
  10.2940         91
  10.3126         88
  10.3312        102
  10.3498         95
  10.3683         96
  10.3869         90
  10.4055         96
  10.4241         88
  10.4427         83
  10.4612         94
  10.4798         90
  10.4984         90
  10.5170         84
  10.5355         85
  10.5541         97
  10.5727        101
  10.5913        108
  10.6098         84
  10.6284         96
  10.6470         72
  10.6656         98
  10.6841         85
  10.7027         89
  10.7213         75
  10.7399         88
  10.7584         93
  10.7770         96
  10.7956         74
  10.8142         91
  10.8327         88
  10.8513         93
  10.8699         95
  10.8885         93
  10.9070         83
  10.9256        108
  10.9442         80
  10.9628         95
  10.9813         87
  10.9999        101
  11.0185         89
  11.0371         96
  11.0556        103
  11.0742         69
  11.0928         94
  11.1114         90
  11.1299         92
  11.1485         83
  11.1671         93
  11.1857         84
  11.2043         89
  11.2228         81
  11.2414         95
  11.2600         99
  11.2786         78
  11.2971         82
  11.3157         89
  11.3343         82
  11.3529         93
  11.3714         89
  11.3900         87
  11.4086         73
  11.4272         83
  11.4457         77
  11.4643         83
  11.4829         80
  11.5015         70
  11.5200         83
  11.5386         79
  11.5572         75
  11.5758        105
  11.5943         92
  11.6129         99
  11.6315         96
  11.6501         97
  11.6686         89
  11.6872         99
  11.7058         71
  11.7244         82
  11.7429         92
  11.7615         76
  11.7801         86
  11.7987         88
  11.8172         92
  11.8358         83
  11.8544         88
  11.8730        112
  11.8915         87
  11.9101         91
  11.9287         75
  11.9473         84
  11.9659         74
  11.9844         92
  12.0030         71
  12.0216         72
  12.0402         91
  12.0587         80
  12.0773         79
  12.0959         84
  12.1145         88
  12.1330         92
  12.1516         86
  12.1702         96
  12.1888         69
  12.2073         77
  12.2259         93
  12.2445         82
  12.2631         85
  12.2816         69
  12.3002         91
  12.3188         95
  12.3374         82
  12.3559         91
  12.3745         73
  12.3931         69
  12.4117         80
  12.4302         77
  12.4488         82
  12.4674         82
  12.4860         75
  12.5045         95
  12.5231         73
  12.5417         78
  12.5603         83
  12.5788         74
  12.5974         77
  12.6160         67
  12.6346         81
  12.6531         78
  12.6717         78
  12.6903         92
  12.7089         86
  12.7274         58
  12.7460         81
  12.7646         81
  12.7832         81
  12.8018         70
  12.8203         74
  12.8389         86
  12.8575         76
  12.8761         75
  12.8946         75
  12.9132         90
  12.9318        103
  12.9504         73
  12.9689         74
  12.9875         67
  13.0061         93
  13.0247         83
  13.0432         74
  13.0618         59
  13.0804         87
  13.0990         98
  13.1175         89
  13.1361         57
  13.1547         59
  13.1733         78
  13.1918         84
  13.2104         73
  13.2290         59
  13.2476         75
  13.2661         70
  13.2847         77
  13.3033         71
  13.3219         54
  13.3404         78
  13.3590         68
  13.3776         64
  13.3962         59
  13.4147         66
  13.4333         72
  13.4519         72
  13.4705         72
  13.4890         82
  13.5076         80
  13.5262         56
  13.5448         88
  13.5634         77
  13.5819         67
  13.6005         72
  13.6191         70
  13.6377         63
  13.6562         65
  13.6748         63
  13.6934         69
  13.7120         75
  13.7305         85
  13.7491         67
  13.7677         59
  13.7863         71
  13.8048         84
  13.8234         74
  13.8420         70
  13.8606         65
  13.8791         69
  13.8977         64
  13.9163         73
  13.9349         78
  13.9534         81
  13.9720         82
  13.9906         75
  14.0092         80
  14.0277         57
  14.0463         70
  14.0649         59
  14.0835         59
  14.1020         71
  14.1206         76
  14.1392         64
  14.1578         63
  14.1763         68
  14.1949         71
  14.2135         60
  14.2321         71
  14.2506         61
  14.2692         54
  14.2878         62
  14.3064         71
  14.3250         56
  14.3435         73
  14.3621         79
  14.3807         69
  14.3993         72
  14.4178         67
  14.4364         63
  14.4550         59
  14.4736         65
  14.4921         76
  14.5107         63
  14.5293         59
  14.5479         77
  14.5664         61
  14.5850         66
  14.6036         45
  14.6222         54
  14.6407         72
  14.6593         55
  14.6779         63
  14.6965         70
  14.7150         50
  14.7336         50
  14.7522         57
  14.7708         49
  14.7893         63
  14.8079         60
  14.8265         69
  14.8451         58
  14.8636         68
  14.8822         62
  14.9008         56
  14.9194         75
  14.9379         57
  14.9565         55
  14.9751         57
  14.9937         61
  15.0122         55
  15.0308         58
  15.0494         74
  15.0680         59
  15.0866         56
  15.1051         49
  15.1237         66
  15.1423         64
  15.1609         57
  15.1794         69
  15.1980         80
  15.2166         55
  15.2352         58
  15.2537         55
  15.2723         61
  15.2909         45
  15.3095         75
  15.3280         78
  15.3466         69
  15.3652         50
  15.3838         74
  15.4023         64
  15.4209         50
  15.4395         51
  15.4581         64
  15.4766         55
  15.4952         70
  15.5138         59
  15.5324         63
  15.5509         63
  15.5695         66
  15.5881         45
  15.6067         61
  15.6252         62
  15.6438         60
  15.6624         51
  15.6810         59
  15.6995         65
  15.7181         49
  15.7367         63
  15.7553         62
  15.7738         54
  15.7924         44
  15.8110         60
  15.8296         55
  15.8482         63
  15.8667         59
  15.8853         66
  15.9039         65
  15.9225         66
  15.9410         75
  15.9596         47
  15.9782         75
  15.9968         68
  16.0153         71
  16.0339         49
  16.0525         64
  16.0711         53
  16.0896         80
  16.1082         59
  16.1268         60
  16.1454         59
  16.1639         60
  16.1825         60
  16.2011         51
  16.2197         52
  16.2382         49
  16.2568         59
  16.2754         61
  16.2940         62
  16.3125         53
  16.3311         67
  16.3497         69
  16.3683         65
  16.3868         58
  16.4054         54
  16.4240         58
  16.4426         53
  16.4611         55
  16.4797         72
  16.4983         60
  16.5169         44
  16.5354         68
  16.5540         67
  16.5726         55
  16.5912         72
  16.6097         65
  16.6283         60
  16.6469         54
  16.6655         44
  16.6841         59
  16.7026         70
  16.7212         53
  16.7398         67
  16.7584         63
  16.7769         74
  16.7955         56
  16.8141         70
  16.8327         59
  16.8512         53
  16.8698         51
  16.8884         65
  16.9070         60
  16.9255         57
  16.9441         75
  16.9627         72
  16.9813         60
  16.9998         56
  17.0184         66
  17.0370         48
  17.0556         66
  17.0741         60
  17.0927         78
  17.1113         69
  17.1299         76
  17.1484         63
  17.1670         55
  17.1856         53
  17.2042         61
  17.2227         61
  17.2413         51
  17.2599         59
  17.2785         56
  17.2970         57
  17.3156         61
  17.3342         70
  17.3528         51
  17.3713         60
  17.3899         67
  17.4085         60
  17.4271         71
  17.4457         57
  17.4642         52
  17.4828         70
  17.5014         59
  17.5200         62
  17.5385         50
  17.5571         72
  17.5757         61
  17.5943         53
  17.6128         71
  17.6314         65
  17.6500         60
  17.6686         65
  17.6871         54
  17.7057         63
  17.7243         52
  17.7429         59
  17.7614         71
  17.7800         47
  17.7986         68
  17.8172         70
  17.8357         68
  17.8543         62
  17.8729         59
  17.8915         61
  17.9100         57
  17.9286         57
  17.9472         59
  17.9658         47
  17.9843         65
  18.0029         74
  18.0215         65
  18.0401         56
  18.0586         58
  18.0772         70
  18.0958         51
  18.1144         63
  18.1329         56
  18.1515         52
  18.1701         67
  18.1887         61
  18.2073         66
  18.2258         83
  18.2444         56
  18.2630         60
  18.2816         55
  18.3001         50
  18.3187         49
  18.3373         53
  18.3559         72
  18.3744         61
  18.3930         56
  18.4116         61
  18.4302         47
  18.4487         58
  18.4673         51
  18.4859         54
  18.5045         55
  18.5230         62
  18.5416         53
  18.5602         56
  18.5788         59
  18.5973         53
  18.6159         57
  18.6345         63
  18.6531         68
  18.6716         68
  18.6902         64
  18.7088         53
  18.7274         66
  18.7459         53
  18.7645         61
  18.7831         56
  18.8017         55
  18.8202         71
  18.8388         66
  18.8574         49
  18.8760         56
  18.8945         71
  18.9131         79
  18.9317         59
  18.9503         58
  18.9689         56
  18.9874         65
  19.0060         59
  19.0246         66
  19.0432         69
  19.0617         51
  19.0803         58
  19.0989         66
  19.1175         74
  19.1360         82
  19.1546         49
  19.1732         53
  19.1918         63
  19.2103         65
  19.2289         60
  19.2475         72
  19.2661         61
  19.2846         67
  19.3032         68
  19.3218         61
  19.3404         69
  19.3589         49
  19.3775         72
  19.3961         51
  19.4147         70
  19.4332         52
  19.4518         61
  19.4704         63
  19.4890         71
  19.5075         65
  19.5261         57
  19.5447         49
  19.5633         60
  19.5818         51
  19.6004         67
  19.6190         76
  19.6376         69
  19.6561         72
  19.6747         58
  19.6933         54
  19.7119         54
  19.7305         61
  19.7490         77
  19.7676         69
  19.7862         53
  19.8048         65
  19.8233         66
  19.8419         72
  19.8605         63
  19.8791         54
  19.8976         72
  19.9162         66
  19.9348         58
  19.9534         76
  19.9719         80
  19.9905         60
  20.0091         78
  20.0277         82
  20.0462         72
  20.0648         73
  20.0834         85
  20.1020         62
  20.1205         61
  20.1391         71
  20.1577         67
  20.1763         59
  20.1948         77
  20.2134         72
  20.2320         71
  20.2506         70
  20.2691         59
  20.2877         75
  20.3063         58
  20.3249         75
  20.3434         64
  20.3620         72
  20.3806         69
  20.3992         75
  20.4177         78
  20.4363         69
  20.4549         71
  20.4735         81
