; (content of file Y:\Sam\Apurva-07-20-2022\puck4\ML_20220718_51_SJD_4_LaB6-4min.raw)
_FILEVERSION = 3
_SAMPLE = ML_20220718_51_SJD_4_LaB6-4min
_+SAMPLE = 
_SITE = USA
_USER = Administrator
_GONIOMETER_CODE = 20
; Goniometer : D8 theta/2theta, stage : Unknown
_ATTACHMENTS_CODE = 0
_GONIOMETER_RADIUS = 200.5
_FIXED_DIVSLIT = 0.6
_FIXED_SAMPLESLIT = 0
_SOLLER_SLITS = 2
_FIXED_DETSLIT = 9.55
_MONOCHROMATOR = 0
; Incident beam monochromator : None
_SOLLER_SLITS_2 = N
_THIN_FILM = N
_BETA_FILTER = Y
_FIXED_ANTISLIT = 5.89
_ANALYZER_CODE = 0
; Received beam analyzer : None
_DATEMEASURED = "26-Jul-2022 14:05:16"
_WL_UNIT = A
_WL1 = 1.5406
_WL2 = 1.54439
_WL3 = 1.39222
_WLRATIO = 0.5
_ANODE = Cu
_V4_INF_CREATOR = XRDWizard
_V4_INF_CREATOR_VERSION = V2.9.0.22
_V4_INF_WIZARD_VERSION = V2.9.0.22
_V4_INF_WIZARD_ADDINS = V2.9.0.22
_V4_INF_WIZARD_DOCTYPE = XRD
_V4_INF_OSUSER = McQueenLab
_V4_INF_USER = Administrator
_V4_INF_SITE = USA
_V4_INF_SAMPLEID = ML_20220718_51_SJD_4_LaB6-4min

; Data for range 1
_DRIVE = COUPLED
_STEPTIME = 11.28
_STEPSIZE = 0.0185756
_STEPMODE = C
_START = 5
_THETA = 2.5
_2THETA = 5
_KHI = 0
_PHI = 0
_X = 0
_Y = 0
_Z = 0
_DETECTOR = 5
; Detector type : Unknown
_DETECTORSLIT = unkn
_AUX1 = 0
_AUX2 = 0
_AUX3 = 0
_TIMESTARTED = 15
_TEMP_RATE = -1
_TEMP_DELAY = -1
_KV = 40
_MA = 40
_RANGE_WL = 1.5406
_3DPLANE = 0
_V4_ADDITIONALDETECTOR = 257
_V4_PSD2THETA = 3.3901
_V4_PSDCHANNEL1 = 0
_V4_PSDAPERTURE = 12.68
_V4_PSDTYPE = 5
_V4_PSDFIXED = 0
_V4_COUNTERS_MASK = 4096
_V4_DRIVES_MASK = 0
_V4_ENCODERS_MASK = 0
_2THETACOUNTS = 1
; 2THETA  PSD
   5.0000        278
   5.0186        283
   5.0372        242
   5.0557        254
   5.0743        248
   5.0929        256
   5.1115        250
   5.1300        232
   5.1486        247
   5.1672        240
   5.1858        245
   5.2043        253
   5.2229        246
   5.2415        240
   5.2601        244
   5.2786        230
   5.2972        223
   5.3158        225
   5.3344        226
   5.3529        240
   5.3715        237
   5.3901        230
   5.4087        234
   5.4272        233
   5.4458        220
   5.4644        208
   5.4830        240
   5.5015        223
   5.5201        239
   5.5387        206
   5.5573        223
   5.5758        225
   5.5944        228
   5.6130        214
   5.6316        220
   5.6501        200
   5.6687        200
   5.6873        217
   5.7059        234
   5.7244        210
   5.7430        234
   5.7616        228
   5.7802        228
   5.7988        202
   5.8173        212
   5.8359        177
   5.8545        206
   5.8731        192
   5.8916        215
   5.9102        210
   5.9288        212
   5.9474        211
   5.9659        218
   5.9845        223
   6.0031        177
   6.0217        175
   6.0402        197
   6.0588        189
   6.0774        188
   6.0960        189
   6.1145        192
   6.1331        181
   6.1517        200
   6.1703        206
   6.1888        194
   6.2074        174
   6.2260        205
   6.2446        183
   6.2631        220
   6.2817        192
   6.3003        179
   6.3189        181
   6.3374        181
   6.3560        209
   6.3746        189
   6.3932        199
   6.4117        161
   6.4303        186
   6.4489        171
   6.4675        198
   6.4860        212
   6.5046        163
   6.5232        167
   6.5418        171
   6.5604        183
   6.5789        176
   6.5975        164
   6.6161        175
   6.6347        162
   6.6532        169
   6.6718        160
   6.6904        172
   6.7090        195
   6.7275        166
   6.7461        174
   6.7647        145
   6.7833        171
   6.8018        152
   6.8204        156
   6.8390        167
   6.8576        168
   6.8761        169
   6.8947        170
   6.9133        176
   6.9319        179
   6.9504        165
   6.9690        151
   6.9876        172
   7.0062        192
   7.0247        175
   7.0433        150
   7.0619        158
   7.0805        158
   7.0990        169
   7.1176        181
   7.1362        142
   7.1548        162
   7.1733        167
   7.1919        191
   7.2105        150
   7.2291        152
   7.2476        157
   7.2662        175
   7.2848        163
   7.3034        144
   7.3220        160
   7.3405        165
   7.3591        150
   7.3777        156
   7.3963        134
   7.4148        172
   7.4334        201
   7.4520        153
   7.4706        165
   7.4891        166
   7.5077        166
   7.5263        167
   7.5449        151
   7.5634        181
   7.5820        181
   7.6006        174
   7.6192        162
   7.6377        177
   7.6563        161
   7.6749        171
   7.6935        161
   7.7120        190
   7.7306        189
   7.7492        169
   7.7678        180
   7.7863        159
   7.8049        189
   7.8235        181
   7.8421        164
   7.8606        199
   7.8792        198
   7.8978        186
   7.9164        149
   7.9349        182
   7.9535        206
   7.9721        173
   7.9907        160
   8.0092        188
   8.0278        173
   8.0464        177
   8.0650        179
   8.0835        176
   8.1021        184
   8.1207        182
   8.1393        210
   8.1579        204
   8.1764        176
   8.1950        205
   8.2136        188
   8.2322        202
   8.2507        182
   8.2693        171
   8.2879        164
   8.3065        180
   8.3250        185
   8.3436        164
   8.3622        174
   8.3808        168
   8.3993        179
   8.4179        202
   8.4365        220
   8.4551        202
   8.4736        198
   8.4922        208
   8.5108        202
   8.5294        207
   8.5479        206
   8.5665        195
   8.5851        192
   8.6037        177
   8.6222        195
   8.6408        199
   8.6594        197
   8.6780        197
   8.6965        204
   8.7151        217
   8.7337        194
   8.7523        193
   8.7708        208
   8.7894        228
   8.8080        223
   8.8266        196
   8.8451        210
   8.8637        206
   8.8823        207
   8.9009        201
   8.9195        232
   8.9380        215
   8.9566        212
   8.9752        196
   8.9938        224
   9.0123        219
   9.0309        228
   9.0495        198
   9.0681        202
   9.0866        231
   9.1052        229
   9.1238        232
   9.1424        243
   9.1609        217
   9.1795        204
   9.1981        211
   9.2167        238
   9.2352        200
   9.2538        234
   9.2724        218
   9.2910        235
   9.3095        224
   9.3281        269
   9.3467        211
   9.3653        216
   9.3838        232
   9.4024        237
   9.4210        231
   9.4396        248
   9.4581        213
   9.4767        220
   9.4953        219
   9.5139        229
   9.5324        202
   9.5510        234
   9.5696        234
   9.5882        228
   9.6067        247
   9.6253        204
   9.6439        227
   9.6625        226
   9.6811        204
   9.6996        238
   9.7182        241
   9.7368        233
   9.7554        204
   9.7739        220
   9.7925        236
   9.8111        243
   9.8297        225
   9.8482        259
   9.8668        247
   9.8854        238
   9.9040        235
   9.9225        242
   9.9411        245
   9.9597        253
   9.9783        232
   9.9968        241
  10.0154        268
  10.0340        258
  10.0526        245
  10.0711        237
  10.0897        265
  10.1083        220
  10.1269        251
  10.1454        243
  10.1640        231
  10.1826        239
  10.2012        227
  10.2197        256
  10.2383        272
  10.2569        259
  10.2755        266
  10.2940        228
  10.3126        227
  10.3312        237
  10.3498        235
  10.3683        238
  10.3869        231
  10.4055        232
  10.4241        215
  10.4427        247
  10.4612        222
  10.4798        256
  10.4984        269
  10.5170        242
  10.5355        226
  10.5541        258
  10.5727        225
  10.5913        220
  10.6098        263
  10.6284        226
  10.6470        250
  10.6656        245
  10.6841        221
  10.7027        229
  10.7213        235
  10.7399        245
  10.7584        252
  10.7770        248
  10.7956        239
  10.8142        239
  10.8327        243
  10.8513        262
  10.8699        249
  10.8885        253
  10.9070        210
  10.9256        236
  10.9442        214
  10.9628        221
  10.9813        252
  10.9999        230
  11.0185        263
  11.0371        227
  11.0556        241
  11.0742        237
  11.0928        242
  11.1114        246
  11.1299        206
  11.1485        269
  11.1671        235
  11.1857        242
  11.2043        225
  11.2228        199
  11.2414        252
  11.2600        257
  11.2786        254
  11.2971        229
  11.3157        225
  11.3343        231
  11.3529        236
  11.3714        240
  11.3900        235
  11.4086        212
  11.4272        226
  11.4457        234
  11.4643        267
  11.4829        255
  11.5015        225
  11.5200        236
  11.5386        245
  11.5572        221
  11.5758        241
  11.5943        237
  11.6129        230
  11.6315        221
  11.6501        243
  11.6686        214
  11.6872        238
  11.7058        240
  11.7244        237
  11.7429        236
  11.7615        229
  11.7801        226
  11.7987        231
  11.8172        240
  11.8358        203
  11.8544        249
  11.8730        242
  11.8915        223
  11.9101        223
  11.9287        230
  11.9473        224
  11.9659        208
  11.9844        211
  12.0030        254
  12.0216        222
  12.0402        219
  12.0587        233
  12.0773        218
  12.0959        236
  12.1145        231
  12.1330        193
  12.1516        247
  12.1702        191
  12.1888        237
  12.2073        208
  12.2259        237
  12.2445        250
  12.2631        230
  12.2816        219
  12.3002        213
  12.3188        218
  12.3374        225
  12.3559        228
  12.3745        200
  12.3931        235
  12.4117        219
  12.4302        211
  12.4488        186
  12.4674        243
  12.4860        188
  12.5045        215
  12.5231        200
  12.5417        212
  12.5603        229
  12.5788        207
  12.5974        244
  12.6160        198
  12.6346        218
  12.6531        215
  12.6717        229
  12.6903        210
  12.7089        221
  12.7274        221
  12.7460        197
  12.7646        226
  12.7832        182
  12.8018        201
  12.8203        199
  12.8389        207
  12.8575        218
  12.8761        239
  12.8946        203
  12.9132        203
  12.9318        224
  12.9504        198
  12.9689        189
  12.9875        239
  13.0061        196
  13.0247        203
  13.0432        198
  13.0618        190
  13.0804        188
  13.0990        205
  13.1175        195
  13.1361        192
  13.1547        198
  13.1733        210
  13.1918        194
  13.2104        228
  13.2290        185
  13.2476        208
  13.2661        227
  13.2847        191
  13.3033        188
  13.3219        212
  13.3404        179
  13.3590        228
  13.3776        180
  13.3962        205
  13.4147        185
  13.4333        172
  13.4519        195
  13.4705        200
  13.4890        160
  13.5076        174
  13.5262        152
  13.5448        180
  13.5634        178
  13.5819        188
  13.6005        205
  13.6191        190
  13.6377        175
  13.6562        201
  13.6748        185
  13.6934        187
  13.7120        171
  13.7305        203
  13.7491        197
  13.7677        188
  13.7863        215
  13.8048        199
  13.8234        179
  13.8420        177
  13.8606        200
  13.8791        192
  13.8977        203
  13.9163        180
  13.9349        192
  13.9534        205
  13.9720        163
  13.9906        182
  14.0092        161
  14.0277        170
  14.0463        178
  14.0649        206
  14.0835        172
  14.1020        183
  14.1206        179
  14.1392        165
  14.1578        192
  14.1763        186
  14.1949        185
  14.2135        189
  14.2321        171
  14.2506        178
  14.2692        174
  14.2878        206
  14.3064        181
  14.3250        183
  14.3435        170
  14.3621        174
  14.3807        178
  14.3993        174
  14.4178        156
  14.4364        169
  14.4550        191
  14.4736        161
  14.4921        160
  14.5107        168
  14.5293        152
  14.5479        161
  14.5664        175
  14.5850        178
  14.6036        185
  14.6222        185
  14.6407        182
  14.6593        178
  14.6779        208
  14.6965        174
  14.7150        193
  14.7336        192
  14.7522        174
  14.7708        159
  14.7893        178
  14.8079        164
  14.8265        185
  14.8451        179
  14.8636        164
  14.8822        175
  14.9008        173
  14.9194        169
  14.9379        157
  14.9565        165
  14.9751        149
  14.9937        169
  15.0122        168
  15.0308        178
  15.0494        164
  15.0680        162
  15.0866        145
  15.1051        161
  15.1237        177
  15.1423        169
  15.1609        165
  15.1794        157
  15.1980        165
  15.2166        170
  15.2352        175
  15.2537        163
  15.2723        161
  15.2909        174
  15.3095        155
  15.3280        164
  15.3466        140
  15.3652        162
  15.3838        166
  15.4023        170
  15.4209        179
  15.4395        174
  15.4581        159
  15.4766        174
  15.4952        158
  15.5138        146
  15.5324        155
  15.5509        184
  15.5695        165
  15.5881        160
  15.6067        172
  15.6252        183
  15.6438        170
  15.6624        149
  15.6810        154
  15.6995        176
  15.7181        172
  15.7367        166
  15.7553        181
  15.7738        169
  15.7924        186
  15.8110        167
  15.8296        191
  15.8482        159
  15.8667        170
  15.8853        182
  15.9039        154
  15.9225        169
  15.9410        159
  15.9596        151
  15.9782        168
  15.9968        164
  16.0153        155
  16.0339        148
  16.0525        178
  16.0711        177
  16.0896        150
  16.1082        164
  16.1268        143
  16.1454        157
  16.1639        159
  16.1825        170
  16.2011        159
  16.2197        149
  16.2382        162
  16.2568        158
  16.2754        169
  16.2940        185
  16.3125        156
  16.3311        164
  16.3497        188
  16.3683        164
  16.3868        178
  16.4054        156
  16.4240        163
  16.4426        154
  16.4611        168
  16.4797        167
  16.4983        177
  16.5169        150
  16.5354        148
  16.5540        174
  16.5726        157
  16.5912        183
  16.6097        145
  16.6283        160
  16.6469        169
  16.6655        168
  16.6841        169
  16.7026        159
  16.7212        161
  16.7398        165
  16.7584        144
  16.7769        168
  16.7955        159
  16.8141        186
  16.8327        161
  16.8512        174
  16.8698        179
  16.8884        166
  16.9070        158
  16.9255        155
  16.9441        155
  16.9627        153
  16.9813        145
  16.9998        151
  17.0184        175
  17.0370        143
  17.0556        124
  17.0741        163
  17.0927        181
  17.1113        162
  17.1299        154
  17.1484        157
  17.1670        156
  17.1856        151
  17.2042        149
  17.2227        163
  17.2413        160
  17.2599        182
  17.2785        170
  17.2970        178
  17.3156        152
  17.3342        144
  17.3528        160
  17.3713        161
  17.3899        162
  17.4085        167
  17.4271        159
  17.4457        158
  17.4642        150
  17.4828        186
  17.5014        158
  17.5200        156
  17.5385        147
  17.5571        156
  17.5757        159
  17.5943        146
  17.6128        159
  17.6314        153
  17.6500        141
  17.6686        149
  17.6871        150
  17.7057        164
  17.7243        163
  17.7429        167
  17.7614        151
  17.7800        156
  17.7986        157
  17.8172        163
  17.8357        156
  17.8543        158
  17.8729        187
  17.8915        168
  17.9100        142
  17.9286        182
  17.9472        181
  17.9658        168
  17.9843        159
  18.0029        194
  18.0215        168
  18.0401        164
  18.0586        164
  18.0772        149
  18.0958        175
  18.1144        158
  18.1329        150
  18.1515        187
  18.1701        172
  18.1887        151
  18.2073        173
  18.2258        164
  18.2444        148
  18.2630        202
  18.2816        159
  18.3001        162
  18.3187        159
  18.3373        157
  18.3559        157
  18.3744        150
  18.3930        173
  18.4116        163
  18.4302        184
  18.4487        177
  18.4673        160
  18.4859        189
  18.5045        165
  18.5230        164
  18.5416        169
  18.5602        149
  18.5788        178
  18.5973        141
  18.6159        150
  18.6345        166
  18.6531        160
  18.6716        165
  18.6902        168
  18.7088        182
  18.7274        167
  18.7459        176
  18.7645        165
  18.7831        156
  18.8017        168
  18.8202        163
  18.8388        179
  18.8574        164
  18.8760        182
  18.8945        169
  18.9131        164
  18.9317        170
  18.9503        158
  18.9689        176
  18.9874        159
  19.0060        170
  19.0246        152
  19.0432        185
  19.0617        166
  19.0803        194
  19.0989        184
  19.1175        172
  19.1360        141
  19.1546        202
  19.1732        164
  19.1918        156
  19.2103        156
  19.2289        159
  19.2475        182
  19.2661        159
  19.2846        173
  19.3032        165
  19.3218        154
  19.3404        165
  19.3589        158
  19.3775        154
  19.3961        180
  19.4147        163
  19.4332        172
  19.4518        151
  19.4704        176
  19.4890        166
  19.5075        163
  19.5261        178
  19.5447        177
  19.5633        179
  19.5818        179
  19.6004        175
  19.6190        182
  19.6376        186
  19.6561        160
  19.6747        167
  19.6933        173
  19.7119        189
  19.7305        196
  19.7490        162
  19.7676        175
  19.7862        188
  19.8048        173
  19.8233        166
  19.8419        176
  19.8605        166
  19.8791        173
  19.8976        164
  19.9162        191
  19.9348        166
  19.9534        183
  19.9719        198
  19.9905        181
  20.0091        183
  20.0277        177
  20.0462        158
  20.0648        203
  20.0834        189
  20.1020        181
  20.1205        179
  20.1391        188
  20.1577        188
  20.1763        189
  20.1948        178
  20.2134        167
  20.2320        175
  20.2506        187
  20.2691        169
  20.2877        148
  20.3063        201
  20.3249        171
  20.3434        172
  20.3620        184
  20.3806        183
  20.3992        180
  20.4177        155
  20.4363        197
  20.4549        163
  20.4735        181
