; (content of file Y:\Sam\Apurva-07-20-2022\puck4\ML_20220718_2_SJD_0_LaB6-1min.raw)
_FILEVERSION = 3
_SAMPLE = ML_20220718_2_SJD_0_LaB6-1mi
_+SAMPLE = 
_SITE = USA
_USER = Administrator
_GONIOMETER_CODE = 20
; Goniometer : D8 theta/2theta, stage : Unknown
_ATTACHMENTS_CODE = 0
_GONIOMETER_RADIUS = 200.5
_FIXED_DIVSLIT = 0.6
_FIXED_SAMPLESLIT = 0
_SOLLER_SLITS = 2
_FIXED_DETSLIT = 9.55
_MONOCHROMATOR = 0
; Incident beam monochromator : None
_SOLLER_SLITS_2 = N
_THIN_FILM = N
_BETA_FILTER = Y
_FIXED_ANTISLIT = 5.89
_ANALYZER_CODE = 0
; Received beam analyzer : None
_DATEMEASURED = "21-Jul-2022 03:02:26"
_WL_UNIT = A
_WL1 = 1.5406
_WL2 = 1.54439
_WL3 = 1.39222
_WLRATIO = 0.5
_ANODE = Cu
_V4_INF_CREATOR = XRDWizard
_V4_INF_CREATOR_VERSION = V2.9.0.22
_V4_INF_WIZARD_VERSION = V2.9.0.22
_V4_INF_WIZARD_ADDINS = V2.9.0.22
_V4_INF_WIZARD_DOCTYPE = XRD
_V4_INF_OSUSER = McQueenLab
_V4_INF_USER = Administrator
_V4_INF_SITE = USA
_V4_INF_SAMPLEID = ML_20220718_2_SJD_0_LaB6-1mi

; Data for range 1
_DRIVE = COUPLED
_STEPTIME = 4.23
_STEPSIZE = 0.0185756
_STEPMODE = C
_START = 5
_THETA = 2.5
_2THETA = 5
_KHI = 0
_PHI = 0
_X = 0
_Y = 0
_Z = 0
_DETECTOR = 5
; Detector type : Unknown
_DETECTORSLIT = unkn
_AUX1 = 0
_AUX2 = 0
_AUX3 = 0
_TIMESTARTED = 15
_TEMP_RATE = -1
_TEMP_DELAY = -1
_KV = 40
_MA = 40
_RANGE_WL = 1.5406
_3DPLANE = 0
_V4_ADDITIONALDETECTOR = 257
_V4_PSD2THETA = 3.4337
_V4_PSDCHANNEL1 = 0
_V4_PSDAPERTURE = 12.68
_V4_PSDTYPE = 5
_V4_PSDFIXED = 0
_V4_COUNTERS_MASK = 4096
_V4_DRIVES_MASK = 0
_V4_ENCODERS_MASK = 0
_2THETACOUNTS = 1
; 2THETA  PSD
   5.0000        114
   5.0186         94
   5.0372         91
   5.0557        100
   5.0743         97
   5.0929         99
   5.1115         91
   5.1300         81
   5.1486         92
   5.1672         91
   5.1858         84
   5.2043         88
   5.2229         71
   5.2415         90
   5.2601         99
   5.2786         98
   5.2972         76
   5.3158         91
   5.3344         86
   5.3529         81
   5.3715         75
   5.3901         90
   5.4087         76
   5.4272         81
   5.4458         84
   5.4644         74
   5.4830         75
   5.5015         91
   5.5201         78
   5.5387         89
   5.5573         78
   5.5758         87
   5.5944         72
   5.6130         89
   5.6316         89
   5.6501         87
   5.6687         97
   5.6873         74
   5.7059         87
   5.7244         84
   5.7430         74
   5.7616         79
   5.7802         82
   5.7988         71
   5.8173         70
   5.8359         69
   5.8545         70
   5.8731         80
   5.8916         58
   5.9102         78
   5.9288         80
   5.9474         73
   5.9659         60
   5.9845         83
   6.0031         75
   6.0217         76
   6.0402         67
   6.0588         56
   6.0774         72
   6.0960         76
   6.1145         63
   6.1331         77
   6.1517         69
   6.1703         71
   6.1888         66
   6.2074         71
   6.2260         72
   6.2446         61
   6.2631         65
   6.2817         71
   6.3003         76
   6.3189         70
   6.3374         58
   6.3560         71
   6.3746         67
   6.3932         53
   6.4117         60
   6.4303         65
   6.4489         74
   6.4675         68
   6.4860         76
   6.5046         68
   6.5232         68
   6.5418         56
   6.5604         62
   6.5789         59
   6.5975         74
   6.6161         61
   6.6347         63
   6.6532         76
   6.6718         54
   6.6904         50
   6.7090         55
   6.7275         59
   6.7461         59
   6.7647         57
   6.7833         64
   6.8018         64
   6.8204         46
   6.8390         63
   6.8576         69
   6.8761         50
   6.8947         74
   6.9133         65
   6.9319         53
   6.9504         71
   6.9690         44
   6.9876         67
   7.0062         64
   7.0247         54
   7.0433         57
   7.0619         64
   7.0805         74
   7.0990         59
   7.1176         56
   7.1362         67
   7.1548         64
   7.1733         57
   7.1919         56
   7.2105         54
   7.2291         62
   7.2476         55
   7.2662         64
   7.2848         56
   7.3034         51
   7.3220         57
   7.3405         62
   7.3591         49
   7.3777         53
   7.3963         64
   7.4148         63
   7.4334         62
   7.4520         61
   7.4706         62
   7.4891         42
   7.5077         53
   7.5263         65
   7.5449         62
   7.5634         69
   7.5820         55
   7.6006         70
   7.6192         54
   7.6377         46
   7.6563         55
   7.6749         58
   7.6935         71
   7.7120         66
   7.7306         63
   7.7492         62
   7.7678         63
   7.7863         50
   7.8049         67
   7.8235         73
   7.8421         62
   7.8606         71
   7.8792         53
   7.8978         65
   7.9164         61
   7.9349         68
   7.9535         65
   7.9721         65
   7.9907         75
   8.0092         52
   8.0278         59
   8.0464         68
   8.0650         74
   8.0835         63
   8.1021         68
   8.1207         67
   8.1393         60
   8.1579         64
   8.1764         75
   8.1950         69
   8.2136         70
   8.2322         62
   8.2507         72
   8.2693         79
   8.2879         60
   8.3065         59
   8.3250         74
   8.3436         59
   8.3622         62
   8.3808         49
   8.3993         60
   8.4179         79
   8.4365         67
   8.4551         65
   8.4736         77
   8.4922         70
   8.5108         60
   8.5294         79
   8.5479         85
   8.5665         66
   8.5851         69
   8.6037         63
   8.6222         66
   8.6408         81
   8.6594         63
   8.6780         79
   8.6965         95
   8.7151         59
   8.7337         66
   8.7523         68
   8.7708         58
   8.7894         92
   8.8080         68
   8.8266         76
   8.8451         74
   8.8637         85
   8.8823         80
   8.9009         71
   8.9195         80
   8.9380         86
   8.9566         61
   8.9752         69
   8.9938         73
   9.0123         81
   9.0309         76
   9.0495         73
   9.0681         79
   9.0866         75
   9.1052         74
   9.1238         57
   9.1424         75
   9.1609         78
   9.1795         70
   9.1981         74
   9.2167         74
   9.2352         65
   9.2538         80
   9.2724         75
   9.2910         86
   9.3095         73
   9.3281         77
   9.3467         76
   9.3653         74
   9.3838         79
   9.4024         71
   9.4210         81
   9.4396         97
   9.4581         76
   9.4767         64
   9.4953         87
   9.5139         75
   9.5324         79
   9.5510         97
   9.5696         79
   9.5882         77
   9.6067         75
   9.6253         97
   9.6439         66
   9.6625        102
   9.6811         77
   9.6996         85
   9.7182         86
   9.7368         68
   9.7554         71
   9.7739         80
   9.7925         86
   9.8111         69
   9.8297         84
   9.8482         82
   9.8668         92
   9.8854         85
   9.9040         85
   9.9225        103
   9.9411         94
   9.9597         87
   9.9783         73
   9.9968         74
  10.0154         87
  10.0340         69
  10.0526         89
  10.0711         85
  10.0897         78
  10.1083         80
  10.1269         91
  10.1454         90
  10.1640         89
  10.1826        103
  10.2012         72
  10.2197         97
  10.2383         83
  10.2569         88
  10.2755         83
  10.2940         86
  10.3126         94
  10.3312         89
  10.3498         73
  10.3683         94
  10.3869         85
  10.4055         73
  10.4241         82
  10.4427         83
  10.4612         90
  10.4798         81
  10.4984         85
  10.5170         77
  10.5355         89
  10.5541         84
  10.5727         95
  10.5913         84
  10.6098         72
  10.6284         79
  10.6470         90
  10.6656         76
  10.6841         83
  10.7027         89
  10.7213         85
  10.7399         82
  10.7584         89
  10.7770         87
  10.7956         84
  10.8142         85
  10.8327         90
  10.8513         84
  10.8699         87
  10.8885         83
  10.9070         79
  10.9256         73
  10.9442         92
  10.9628         89
  10.9813         85
  10.9999         89
  11.0185         81
  11.0371         83
  11.0556         84
  11.0742         75
  11.0928         82
  11.1114         63
  11.1299         86
  11.1485         77
  11.1671         77
  11.1857         91
  11.2043         82
  11.2228         85
  11.2414         97
  11.2600        100
  11.2786        100
  11.2971         84
  11.3157         89
  11.3343         86
  11.3529         73
  11.3714         83
  11.3900         75
  11.4086         88
  11.4272         77
  11.4457         98
  11.4643         69
  11.4829         94
  11.5015         79
  11.5200         77
  11.5386         84
  11.5572         84
  11.5758         91
  11.5943         88
  11.6129         76
  11.6315         93
  11.6501         66
  11.6686         83
  11.6872         72
  11.7058         72
  11.7244         64
  11.7429         76
  11.7615         75
  11.7801         87
  11.7987         83
  11.8172         85
  11.8358         83
  11.8544         77
  11.8730         90
  11.8915         85
  11.9101         88
  11.9287         98
  11.9473         86
  11.9659         95
  11.9844         79
  12.0030         79
  12.0216         86
  12.0402         76
  12.0587         73
  12.0773         79
  12.0959         69
  12.1145         93
  12.1330         72
  12.1516         86
  12.1702         81
  12.1888         70
  12.2073         68
  12.2259         81
  12.2445         84
  12.2631         83
  12.2816         68
  12.3002         76
  12.3188         66
  12.3374         82
  12.3559         77
  12.3745         79
  12.3931         73
  12.4117         97
  12.4302         85
  12.4488         74
  12.4674         80
  12.4860         78
  12.5045         75
  12.5231         85
  12.5417         78
  12.5603         80
  12.5788         74
  12.5974         80
  12.6160         87
  12.6346         75
  12.6531         59
  12.6717         59
  12.6903         66
  12.7089         78
  12.7274         63
  12.7460         70
  12.7646         67
  12.7832         70
  12.8018         77
  12.8203         95
  12.8389         64
  12.8575         77
  12.8761         90
  12.8946         61
  12.9132         76
  12.9318         87
  12.9504         69
  12.9689         62
  12.9875         76
  13.0061         73
  13.0247         81
  13.0432         67
  13.0618         73
  13.0804         60
  13.0990         63
  13.1175         63
  13.1361         64
  13.1547         68
  13.1733         54
  13.1918         80
  13.2104         82
  13.2290         69
  13.2476         74
  13.2661         80
  13.2847         75
  13.3033         67
  13.3219         64
  13.3404         54
  13.3590         64
  13.3776         75
  13.3962         59
  13.4147         61
  13.4333         70
  13.4519         58
  13.4705         70
  13.4890         88
  13.5076         59
  13.5262         72
  13.5448         78
  13.5634         57
  13.5819         76
  13.6005         70
  13.6191         81
  13.6377         71
  13.6562         78
  13.6748         77
  13.6934         65
  13.7120         52
  13.7305         79
  13.7491         67
  13.7677         53
  13.7863         66
  13.8048         68
  13.8234         75
  13.8420         62
  13.8606         72
  13.8791         67
  13.8977         68
  13.9163         85
  13.9349         82
  13.9534         57
  13.9720         57
  13.9906         55
  14.0092         63
  14.0277         56
  14.0463         68
  14.0649         66
  14.0835         75
  14.1020         70
  14.1206         54
  14.1392         57
  14.1578         57
  14.1763         75
  14.1949         80
  14.2135         64
  14.2321         64
  14.2506         54
  14.2692         62
  14.2878         68
  14.3064         64
  14.3250         63
  14.3435         72
  14.3621         65
  14.3807         54
  14.3993         58
  14.4178         75
  14.4364         80
  14.4550         74
  14.4736         70
  14.4921         60
  14.5107         59
  14.5293         62
  14.5479         66
  14.5664         58
  14.5850         78
  14.6036         54
  14.6222         72
  14.6407         69
  14.6593         55
  14.6779         56
  14.6965         64
  14.7150         58
  14.7336         50
  14.7522         58
  14.7708         54
  14.7893         69
  14.8079         69
  14.8265         67
  14.8451         65
  14.8636         66
  14.8822         74
  14.9008         70
  14.9194         65
  14.9379         62
  14.9565         46
  14.9751         54
  14.9937         59
  15.0122         53
  15.0308         66
  15.0494         62
  15.0680         75
  15.0866         55
  15.1051         60
  15.1237         59
  15.1423         48
  15.1609         59
  15.1794         72
  15.1980         50
  15.2166         68
  15.2352         60
  15.2537         48
  15.2723         62
  15.2909         71
  15.3095         59
  15.3280         73
  15.3466         69
  15.3652         65
  15.3838         60
  15.4023         63
  15.4209         53
  15.4395         57
  15.4581         45
  15.4766         64
  15.4952         59
  15.5138         61
  15.5324         60
  15.5509         62
  15.5695         55
  15.5881         61
  15.6067         66
  15.6252         71
  15.6438         63
  15.6624         53
  15.6810         60
  15.6995         78
  15.7181         61
  15.7367         58
  15.7553         64
  15.7738         71
  15.7924         68
  15.8110         60
  15.8296         48
  15.8482         49
  15.8667         62
  15.8853         58
  15.9039         58
  15.9225         57
  15.9410         65
  15.9596         52
  15.9782         63
  15.9968         70
  16.0153         66
  16.0339         61
  16.0525         62
  16.0711         50
  16.0896         51
  16.1082         55
  16.1268         77
  16.1454         67
  16.1639         44
  16.1825         46
  16.2011         52
  16.2197         47
  16.2382         47
  16.2568         47
  16.2754         45
  16.2940         64
  16.3125         62
  16.3311         63
  16.3497         58
  16.3683         56
  16.3868         51
  16.4054         56
  16.4240         57
  16.4426         66
  16.4611         60
  16.4797         68
  16.4983         54
  16.5169         40
  16.5354         42
  16.5540         55
  16.5726         63
  16.5912         56
  16.6097         61
  16.6283         56
  16.6469         62
  16.6655         69
  16.6841         45
  16.7026         51
  16.7212         58
  16.7398         68
  16.7584         43
  16.7769         58
  16.7955         44
  16.8141         61
  16.8327         59
  16.8512         69
  16.8698         57
  16.8884         56
  16.9070         61
  16.9255         64
  16.9441         59
  16.9627         45
  16.9813         71
  16.9998         55
  17.0184         67
  17.0370         51
  17.0556         64
  17.0741         67
  17.0927         55
  17.1113         56
  17.1299         57
  17.1484         60
  17.1670         56
  17.1856         59
  17.2042         61
  17.2227         58
  17.2413         64
  17.2599         61
  17.2785         63
  17.2970         64
  17.3156         65
  17.3342         40
  17.3528         57
  17.3713         63
  17.3899         51
  17.4085         50
  17.4271         68
  17.4457         64
  17.4642         62
  17.4828         52
  17.5014         53
  17.5200         53
  17.5385         67
  17.5571         60
  17.5757         66
  17.5943         59
  17.6128         56
  17.6314         46
  17.6500         60
  17.6686         53
  17.6871         61
  17.7057         62
  17.7243         68
  17.7429         57
  17.7614         46
  17.7800         70
  17.7986         63
  17.8172         66
  17.8357         49
  17.8543         57
  17.8729         52
  17.8915         63
  17.9100         48
  17.9286         59
  17.9472         62
  17.9658         61
  17.9843         57
  18.0029         51
  18.0215         59
  18.0401         54
  18.0586         59
  18.0772         71
  18.0958         75
  18.1144         64
  18.1329         68
  18.1515         60
  18.1701         50
  18.1887         60
  18.2073         57
  18.2258         56
  18.2444         61
  18.2630         57
  18.2816         58
  18.3001         57
  18.3187         61
  18.3373         54
  18.3559         64
  18.3744         57
  18.3930         51
  18.4116         58
  18.4302         64
  18.4487         52
  18.4673         76
  18.4859         59
  18.5045         66
  18.5230         68
  18.5416         71
  18.5602         53
  18.5788         62
  18.5973         51
  18.6159         63
  18.6345         70
  18.6531         73
  18.6716         66
  18.6902         49
  18.7088         69
  18.7274         70
  18.7459         71
  18.7645         58
  18.7831         50
  18.8017         69
  18.8202         57
  18.8388         57
  18.8574         49
  18.8760         62
  18.8945         53
  18.9131         55
  18.9317         63
  18.9503         63
  18.9689         62
  18.9874         65
  19.0060         67
  19.0246         59
  19.0432         65
  19.0617         66
  19.0803         72
  19.0989         59
  19.1175         61
  19.1360         59
  19.1546         53
  19.1732         53
  19.1918         51
  19.2103         59
  19.2289         47
  19.2475         57
  19.2661         71
  19.2846         70
  19.3032         61
  19.3218         51
  19.3404         60
  19.3589         52
  19.3775         55
  19.3961         73
  19.4147         60
  19.4332         67
  19.4518         57
  19.4704         64
  19.4890         73
  19.5075         60
  19.5261         60
  19.5447         62
  19.5633         59
  19.5818         72
  19.6004         63
  19.6190         77
  19.6376         56
  19.6561         51
  19.6747         76
  19.6933         75
  19.7119         79
  19.7305         61
  19.7490         63
  19.7676         50
  19.7862         64
  19.8048         77
  19.8233         47
  19.8419         62
  19.8605         60
  19.8791         58
  19.8976         56
  19.9162         50
  19.9348         62
  19.9534         67
  19.9719         66
  19.9905         68
  20.0091         53
  20.0277         63
  20.0462         64
  20.0648         71
  20.0834         69
  20.1020         70
  20.1205         73
  20.1391         66
  20.1577         61
  20.1763         56
  20.1948         49
  20.2134         57
  20.2320         49
  20.2506         66
  20.2691         72
  20.2877         62
  20.3063         47
  20.3249         54
  20.3434         47
  20.3620         65
  20.3806         71
  20.3992         63
  20.4177         65
  20.4363         68
  20.4549         65
  20.4735         62
