; (content of file Y:\Sam\Apurva-07-20-2022\puck4\ML_20220718_23_SJD_0_LaB6-2min.raw)
_FILEVERSION = 3
_SAMPLE = ML_20220718_23_SJD_0_LaB6-2min
_+SAMPLE = 
_SITE = USA
_USER = Administrator
_GONIOMETER_CODE = 20
; Goniometer : D8 theta/2theta, stage : Unknown
_ATTACHMENTS_CODE = 0
_GONIOMETER_RADIUS = 200.5
_FIXED_DIVSLIT = 0.6
_FIXED_SAMPLESLIT = 0
_SOLLER_SLITS = 2
_FIXED_DETSLIT = 9.55
_MONOCHROMATOR = 0
; Incident beam monochromator : None
_SOLLER_SLITS_2 = N
_THIN_FILM = N
_BETA_FILTER = Y
_FIXED_ANTISLIT = 5.89
_ANALYZER_CODE = 0
; Received beam analyzer : None
_DATEMEASURED = "26-Jul-2022 09:30:21"
_WL_UNIT = A
_WL1 = 1.5406
_WL2 = 1.54439
_WL3 = 1.39222
_WLRATIO = 0.5
_ANODE = Cu
_V4_INF_CREATOR = XRDWizard
_V4_INF_CREATOR_VERSION = V2.9.0.22
_V4_INF_WIZARD_VERSION = V2.9.0.22
_V4_INF_WIZARD_ADDINS = V2.9.0.22
_V4_INF_WIZARD_DOCTYPE = XRD
_V4_INF_OSUSER = McQueenLab
_V4_INF_USER = Administrator
_V4_INF_SITE = USA
_V4_INF_SAMPLEID = ML_20220718_23_SJD_0_LaB6-2min

; Data for range 1
_DRIVE = COUPLED
_STEPTIME = 5.64
_STEPSIZE = 0.0185756
_STEPMODE = C
_START = 5
_THETA = 2.5
_2THETA = 5
_KHI = 0
_PHI = 0
_X = 0
_Y = 0
_Z = 0
_DETECTOR = 5
; Detector type : Unknown
_DETECTORSLIT = unkn
_AUX1 = 0
_AUX2 = 0
_AUX3 = 0
_TIMESTARTED = 15
_TEMP_RATE = -1
_TEMP_DELAY = -1
_KV = 40
_MA = 40
_RANGE_WL = 1.5406
_3DPLANE = 0
_V4_ADDITIONALDETECTOR = 257
_V4_PSD2THETA = 3.3682
_V4_PSDCHANNEL1 = 0
_V4_PSDAPERTURE = 12.68
_V4_PSDTYPE = 5
_V4_PSDFIXED = 0
_V4_COUNTERS_MASK = 4096
_V4_DRIVES_MASK = 0
_V4_ENCODERS_MASK = 0
_2THETACOUNTS = 1
; 2THETA  PSD
   5.0000        146
   5.0186        135
   5.0372        137
   5.0557        142
   5.0743        120
   5.0929        134
   5.1115        119
   5.1300        119
   5.1486        126
   5.1672        117
   5.1858        133
   5.2043        121
   5.2229        142
   5.2415        123
   5.2601        126
   5.2786        138
   5.2972        130
   5.3158        121
   5.3344        139
   5.3529         99
   5.3715        121
   5.3901        129
   5.4087        102
   5.4272        114
   5.4458        100
   5.4644        101
   5.4830        120
   5.5015        124
   5.5201        103
   5.5387        115
   5.5573        108
   5.5758        124
   5.5944         90
   5.6130         93
   5.6316        118
   5.6501        124
   5.6687        112
   5.6873        121
   5.7059        103
   5.7244        101
   5.7430         98
   5.7616         98
   5.7802         99
   5.7988        100
   5.8173        102
   5.8359        107
   5.8545        117
   5.8731         94
   5.8916         99
   5.9102        107
   5.9288         74
   5.9474         96
   5.9659         87
   5.9845         94
   6.0031        116
   6.0217         81
   6.0402        103
   6.0588         83
   6.0774        103
   6.0960         92
   6.1145         86
   6.1331         84
   6.1517        107
   6.1703        112
   6.1888         97
   6.2074        101
   6.2260         90
   6.2446         80
   6.2631         64
   6.2817         85
   6.3003        101
   6.3189        107
   6.3374         85
   6.3560        103
   6.3746         85
   6.3932         91
   6.4117         91
   6.4303         88
   6.4489        103
   6.4675         87
   6.4860         92
   6.5046         86
   6.5232         83
   6.5418         88
   6.5604         97
   6.5789         78
   6.5975         90
   6.6161         92
   6.6347         81
   6.6532         84
   6.6718         95
   6.6904         73
   6.7090         89
   6.7275         95
   6.7461         95
   6.7647         77
   6.7833         89
   6.8018         90
   6.8204         90
   6.8390         75
   6.8576         95
   6.8761         78
   6.8947         83
   6.9133         90
   6.9319         76
   6.9504         73
   6.9690         88
   6.9876         96
   7.0062         86
   7.0247         86
   7.0433         79
   7.0619         82
   7.0805         76
   7.0990         75
   7.1176         77
   7.1362         75
   7.1548         82
   7.1733         73
   7.1919         78
   7.2105         72
   7.2291         82
   7.2476         82
   7.2662         75
   7.2848         95
   7.3034         85
   7.3220         83
   7.3405         83
   7.3591         92
   7.3777         69
   7.3963         69
   7.4148         87
   7.4334         71
   7.4520         85
   7.4706         80
   7.4891         94
   7.5077         96
   7.5263         85
   7.5449         82
   7.5634         87
   7.5820         78
   7.6006         88
   7.6192         95
   7.6377         88
   7.6563         86
   7.6749         93
   7.6935         91
   7.7120         87
   7.7306         96
   7.7492         87
   7.7678         95
   7.7863         98
   7.8049         94
   7.8235         82
   7.8421         97
   7.8606         82
   7.8792         79
   7.8978         85
   7.9164         76
   7.9349        102
   7.9535         99
   7.9721         89
   7.9907         78
   8.0092         73
   8.0278         95
   8.0464         99
   8.0650         85
   8.0835         83
   8.1021         82
   8.1207         93
   8.1393        106
   8.1579         98
   8.1764        123
   8.1950        111
   8.2136         89
   8.2322        101
   8.2507        114
   8.2693         94
   8.2879         97
   8.3065         97
   8.3250         93
   8.3436         97
   8.3622         99
   8.3808        103
   8.3993         92
   8.4179         80
   8.4365        100
   8.4551         92
   8.4736        111
   8.4922         98
   8.5108         90
   8.5294        105
   8.5479        101
   8.5665        111
   8.5851        108
   8.6037        113
   8.6222         87
   8.6408         93
   8.6594        114
   8.6780         87
   8.6965         98
   8.7151        109
   8.7337        101
   8.7523        103
   8.7708        102
   8.7894        109
   8.8080         96
   8.8266        109
   8.8451        108
   8.8637         92
   8.8823         91
   8.9009        101
   8.9195        100
   8.9380        105
   8.9566        102
   8.9752        108
   8.9938        112
   9.0123         98
   9.0309        101
   9.0495        106
   9.0681        112
   9.0866        114
   9.1052        116
   9.1238        104
   9.1424        118
   9.1609         94
   9.1795        112
   9.1981        118
   9.2167        100
   9.2352        104
   9.2538        103
   9.2724        117
   9.2910        107
   9.3095        124
   9.3281        123
   9.3467         89
   9.3653        117
   9.3838        118
   9.4024        124
   9.4210        116
   9.4396        112
   9.4581        121
   9.4767         96
   9.4953         93
   9.5139        112
   9.5324        115
   9.5510        101
   9.5696        109
   9.5882        126
   9.6067         85
   9.6253        103
   9.6439        125
   9.6625        102
   9.6811        110
   9.6996         96
   9.7182        116
   9.7368        112
   9.7554        107
   9.7739        129
   9.7925        122
   9.8111        120
   9.8297        106
   9.8482        140
   9.8668        135
   9.8854        103
   9.9040        128
   9.9225        108
   9.9411        101
   9.9597        128
   9.9783        124
   9.9968        138
  10.0154        112
  10.0340        116
  10.0526        109
  10.0711        126
  10.0897        135
  10.1083        122
  10.1269         94
  10.1454        133
  10.1640        124
  10.1826        138
  10.2012        118
  10.2197        130
  10.2383        102
  10.2569        121
  10.2755        123
  10.2940        114
  10.3126        112
  10.3312         93
  10.3498        132
  10.3683        127
  10.3869        124
  10.4055        107
  10.4241        107
  10.4427        128
  10.4612        112
  10.4798        100
  10.4984        121
  10.5170        122
  10.5355        111
  10.5541        116
  10.5727        137
  10.5913        105
  10.6098        103
  10.6284        123
  10.6470         97
  10.6656        119
  10.6841        103
  10.7027        120
  10.7213        113
  10.7399        119
  10.7584        129
  10.7770        117
  10.7956        115
  10.8142        103
  10.8327        101
  10.8513        138
  10.8699        132
  10.8885        114
  10.9070        120
  10.9256        106
  10.9442        114
  10.9628        128
  10.9813        114
  10.9999        114
  11.0185        110
  11.0371        113
  11.0556        108
  11.0742        101
  11.0928        101
  11.1114        125
  11.1299        110
  11.1485        114
  11.1671        103
  11.1857        118
  11.2043        102
  11.2228        115
  11.2414        117
  11.2600        116
  11.2786         98
  11.2971        141
  11.3157        109
  11.3343        130
  11.3529        103
  11.3714         98
  11.3900        134
  11.4086        133
  11.4272        122
  11.4457        102
  11.4643        119
  11.4829        120
  11.5015        112
  11.5200        119
  11.5386        145
  11.5572        118
  11.5758        111
  11.5943        130
  11.6129        127
  11.6315        103
  11.6501        118
  11.6686         90
  11.6872        135
  11.7058        113
  11.7244        115
  11.7429        122
  11.7615        111
  11.7801        130
  11.7987        121
  11.8172        131
  11.8358        129
  11.8544        124
  11.8730        122
  11.8915        117
  11.9101        125
  11.9287        132
  11.9473        112
  11.9659        115
  11.9844        110
  12.0030        101
  12.0216        122
  12.0402        115
  12.0587        114
  12.0773        111
  12.0959        101
  12.1145        109
  12.1330        108
  12.1516        111
  12.1702        118
  12.1888        111
  12.2073        121
  12.2259        120
  12.2445        105
  12.2631        117
  12.2816        106
  12.3002         99
  12.3188        115
  12.3374        120
  12.3559        113
  12.3745        115
  12.3931        114
  12.4117        114
  12.4302        125
  12.4488        102
  12.4674         98
  12.4860         89
  12.5045         96
  12.5231        111
  12.5417         94
  12.5603        118
  12.5788        116
  12.5974        114
  12.6160        111
  12.6346        125
  12.6531        112
  12.6717        118
  12.6903        113
  12.7089        106
  12.7274        110
  12.7460         91
  12.7646        117
  12.7832         78
  12.8018        102
  12.8203        108
  12.8389        132
  12.8575        132
  12.8761        116
  12.8946        102
  12.9132        114
  12.9318        109
  12.9504        121
  12.9689        104
  12.9875        111
  13.0061        112
  13.0247         87
  13.0432         92
  13.0618        105
  13.0804        106
  13.0990         96
  13.1175         84
  13.1361         94
  13.1547        105
  13.1733        106
  13.1918         88
  13.2104        113
  13.2290        100
  13.2476        106
  13.2661         99
  13.2847        117
  13.3033        112
  13.3219        110
  13.3404        110
  13.3590        101
  13.3776         79
  13.3962         88
  13.4147         96
  13.4333         93
  13.4519        103
  13.4705        103
  13.4890         98
  13.5076        103
  13.5262         90
  13.5448         86
  13.5634        106
  13.5819         95
  13.6005         93
  13.6191        106
  13.6377         89
  13.6562         83
  13.6748        101
  13.6934         91
  13.7120        102
  13.7305        104
  13.7491        101
  13.7677         96
  13.7863         99
  13.8048        107
  13.8234         86
  13.8420        106
  13.8606         89
  13.8791         80
  13.8977         88
  13.9163         93
  13.9349         86
  13.9534         85
  13.9720        103
  13.9906         88
  14.0092         79
  14.0277         73
  14.0463         83
  14.0649         95
  14.0835         99
  14.1020         90
  14.1206         97
  14.1392         91
  14.1578         83
  14.1763         88
  14.1949         89
  14.2135         84
  14.2321         91
  14.2506         94
  14.2692         84
  14.2878         94
  14.3064         70
  14.3250         97
  14.3435         87
  14.3621         97
  14.3807         91
  14.3993         81
  14.4178         91
  14.4364         84
  14.4550         86
  14.4736         87
  14.4921         89
  14.5107         74
  14.5293         92
  14.5479         71
  14.5664         74
  14.5850         89
  14.6036        102
  14.6222         73
  14.6407         77
  14.6593         67
  14.6779         76
  14.6965         88
  14.7150         75
  14.7336         84
  14.7522         85
  14.7708         82
  14.7893         88
  14.8079         85
  14.8265         94
  14.8451         77
  14.8636         91
  14.8822         77
  14.9008         92
  14.9194         94
  14.9379         95
  14.9565         78
  14.9751         72
  14.9937         88
  15.0122         82
  15.0308         80
  15.0494         89
  15.0680         91
  15.0866        100
  15.1051         71
  15.1237         79
  15.1423         85
  15.1609         70
  15.1794         62
  15.1980         82
  15.2166         70
  15.2352         92
  15.2537         92
  15.2723         81
  15.2909         89
  15.3095         89
  15.3280         77
  15.3466         81
  15.3652         80
  15.3838         94
  15.4023         77
  15.4209         90
  15.4395         87
  15.4581         92
  15.4766         74
  15.4952         82
  15.5138         87
  15.5324         73
  15.5509         69
  15.5695         67
  15.5881         65
  15.6067         84
  15.6252         72
  15.6438         85
  15.6624         80
  15.6810         72
  15.6995         73
  15.7181        101
  15.7367         82
  15.7553         86
  15.7738         88
  15.7924         79
  15.8110         73
  15.8296         86
  15.8482         66
  15.8667         81
  15.8853        102
  15.9039         83
  15.9225         75
  15.9410         91
  15.9596         69
  15.9782         88
  15.9968         96
  16.0153         91
  16.0339         87
  16.0525         79
  16.0711         80
  16.0896         66
  16.1082         85
  16.1268         84
  16.1454         76
  16.1639         84
  16.1825         72
  16.2011         88
  16.2197         91
  16.2382         78
  16.2568         99
  16.2754         92
  16.2940         79
  16.3125         99
  16.3311         74
  16.3497         86
  16.3683         90
  16.3868         82
  16.4054         98
  16.4240         78
  16.4426         87
  16.4611         74
  16.4797         78
  16.4983         76
  16.5169         94
  16.5354         82
  16.5540         80
  16.5726         79
  16.5912         83
  16.6097         78
  16.6283         72
  16.6469         75
  16.6655         81
  16.6841         78
  16.7026         79
  16.7212         86
  16.7398         85
  16.7584         79
  16.7769         82
  16.7955         60
  16.8141         86
  16.8327         78
  16.8512         84
  16.8698         66
  16.8884         67
  16.9070         89
  16.9255         74
  16.9441         71
  16.9627         69
  16.9813         87
  16.9998         92
  17.0184         84
  17.0370         83
  17.0556         81
  17.0741         95
  17.0927         91
  17.1113         76
  17.1299         87
  17.1484         88
  17.1670         78
  17.1856         78
  17.2042         84
  17.2227         79
  17.2413         65
  17.2599         68
  17.2785         83
  17.2970         89
  17.3156         83
  17.3342         79
  17.3528         82
  17.3713         85
  17.3899         69
  17.4085         71
  17.4271         86
  17.4457         71
  17.4642        102
  17.4828         87
  17.5014         97
  17.5200         89
  17.5385         83
  17.5571         79
  17.5757         68
  17.5943         73
  17.6128         68
  17.6314         82
  17.6500         91
  17.6686         81
  17.6871         83
  17.7057         80
  17.7243         82
  17.7429         80
  17.7614         92
  17.7800         62
  17.7986         82
  17.8172         74
  17.8357         92
  17.8543         78
  17.8729         90
  17.8915         91
  17.9100         90
  17.9286        106
  17.9472         91
  17.9658         87
  17.9843         87
  18.0029         75
  18.0215         78
  18.0401         87
  18.0586         80
  18.0772         76
  18.0958         93
  18.1144         75
  18.1329         83
  18.1515         86
  18.1701         75
  18.1887         93
  18.2073         87
  18.2258         78
  18.2444         81
  18.2630         82
  18.2816         86
  18.3001         95
  18.3187         77
  18.3373         78
  18.3559         91
  18.3744         59
  18.3930         77
  18.4116         95
  18.4302         97
  18.4487         71
  18.4673         67
  18.4859         80
  18.5045         70
  18.5230         71
  18.5416         80
  18.5602         74
  18.5788         78
  18.5973        100
  18.6159         75
  18.6345         84
  18.6531         80
  18.6716         77
  18.6902         85
  18.7088         91
  18.7274         76
  18.7459         74
  18.7645         82
  18.7831         82
  18.8017         91
  18.8202         88
  18.8388         77
  18.8574         74
  18.8760         91
  18.8945         95
  18.9131         90
  18.9317         87
  18.9503         84
  18.9689         83
  18.9874         81
  19.0060         82
  19.0246         99
  19.0432         85
  19.0617         77
  19.0803         74
  19.0989         77
  19.1175         73
  19.1360         78
  19.1546         96
  19.1732         83
  19.1918         70
  19.2103         81
  19.2289         81
  19.2475         70
  19.2661         84
  19.2846         92
  19.3032         79
  19.3218         97
  19.3404         72
  19.3589         83
  19.3775        103
  19.3961         90
  19.4147         84
  19.4332         86
  19.4518         74
  19.4704         94
  19.4890         85
  19.5075         81
  19.5261         78
  19.5447         76
  19.5633         80
  19.5818         85
  19.6004         80
  19.6190         89
  19.6376         78
  19.6561         94
  19.6747         94
  19.6933         81
  19.7119         84
  19.7305         96
  19.7490         70
  19.7676         95
  19.7862         88
  19.8048         83
  19.8233         82
  19.8419         95
  19.8605         86
  19.8791         91
  19.8976        102
  19.9162         80
  19.9348         94
  19.9534         89
  19.9719         81
  19.9905         85
  20.0091        108
  20.0277        100
  20.0462         87
  20.0648         88
  20.0834         92
  20.1020         98
  20.1205         85
  20.1391         85
  20.1577         77
  20.1763         99
  20.1948         82
  20.2134        101
  20.2320         89
  20.2506         70
  20.2691         89
  20.2877        100
  20.3063         97
  20.3249         96
  20.3434         87
  20.3620         77
  20.3806         79
  20.3992         90
  20.4177         93
  20.4363         92
  20.4549         91
  20.4735         98
