; (content of file Y:\Sam\Apurva-07-20-2022\puck4\ML_20220718_15_SJD_0_LaB6-2min.raw)
_FILEVERSION = 3
_SAMPLE = ML_20220718_15_SJD_0_LaB6-2min
_+SAMPLE = 
_SITE = USA
_USER = Administrator
_GONIOMETER_CODE = 20
; Goniometer : D8 theta/2theta, stage : Unknown
_ATTACHMENTS_CODE = 0
_GONIOMETER_RADIUS = 200.5
_FIXED_DIVSLIT = 0.6
_FIXED_SAMPLESLIT = 0
_SOLLER_SLITS = 2
_FIXED_DETSLIT = 9.55
_MONOCHROMATOR = 0
; Incident beam monochromator : None
_SOLLER_SLITS_2 = N
_THIN_FILM = N
_BETA_FILTER = Y
_FIXED_ANTISLIT = 5.89
_ANALYZER_CODE = 0
; Received beam analyzer : None
_DATEMEASURED = "26-Jul-2022 09:49:29"
_WL_UNIT = A
_WL1 = 1.5406
_WL2 = 1.54439
_WL3 = 1.39222
_WLRATIO = 0.5
_ANODE = Cu
_V4_INF_CREATOR = XRDWizard
_V4_INF_CREATOR_VERSION = V2.9.0.22
_V4_INF_WIZARD_VERSION = V2.9.0.22
_V4_INF_WIZARD_ADDINS = V2.9.0.22
_V4_INF_WIZARD_DOCTYPE = XRD
_V4_INF_OSUSER = McQueenLab
_V4_INF_USER = Administrator
_V4_INF_SITE = USA
_V4_INF_SAMPLEID = ML_20220718_15_SJD_0_LaB6-2min

; Data for range 1
_DRIVE = COUPLED
_STEPTIME = 5.64
_STEPSIZE = 0.0185756
_STEPMODE = C
_START = 5
_THETA = 2.5
_2THETA = 5
_KHI = 0
_PHI = 0
_X = 0
_Y = 0
_Z = 0
_DETECTOR = 5
; Detector type : Unknown
_DETECTORSLIT = unkn
_AUX1 = 0
_AUX2 = 0
_AUX3 = 0
_TIMESTARTED = 15
_TEMP_RATE = -1
_TEMP_DELAY = -1
_KV = 40
_MA = 40
_RANGE_WL = 1.5406
_3DPLANE = 0
_V4_ADDITIONALDETECTOR = 257
_V4_PSD2THETA = 3.3706
_V4_PSDCHANNEL1 = 0
_V4_PSDAPERTURE = 12.68
_V4_PSDTYPE = 5
_V4_PSDFIXED = 0
_V4_COUNTERS_MASK = 4096
_V4_DRIVES_MASK = 0
_V4_ENCODERS_MASK = 0
_2THETACOUNTS = 1
; 2THETA  PSD
   5.0000        161
   5.0186        127
   5.0372        134
   5.0557        138
   5.0743        133
   5.0929        139
   5.1115        121
   5.1300        136
   5.1486        153
   5.1672        128
   5.1858        141
   5.2043        121
   5.2229        120
   5.2415        121
   5.2601        114
   5.2786        116
   5.2972        105
   5.3158        128
   5.3344        118
   5.3529        116
   5.3715        116
   5.3901        125
   5.4087         98
   5.4272        121
   5.4458        107
   5.4644        146
   5.4830        110
   5.5015        118
   5.5201        100
   5.5387        126
   5.5573         99
   5.5758         99
   5.5944        106
   5.6130        101
   5.6316         91
   5.6501        119
   5.6687         93
   5.6873        115
   5.7059        111
   5.7244         93
   5.7430         96
   5.7616        101
   5.7802         89
   5.7988        104
   5.8173        122
   5.8359        106
   5.8545        105
   5.8731        107
   5.8916        116
   5.9102        108
   5.9288        102
   5.9474         99
   5.9659        109
   5.9845        107
   6.0031         88
   6.0217        101
   6.0402         87
   6.0588         95
   6.0774         85
   6.0960         91
   6.1145         88
   6.1331         92
   6.1517        103
   6.1703         89
   6.1888        101
   6.2074         95
   6.2260         99
   6.2446         96
   6.2631         99
   6.2817         97
   6.3003         72
   6.3189        104
   6.3374         89
   6.3560         95
   6.3746         96
   6.3932         80
   6.4117         86
   6.4303        102
   6.4489         98
   6.4675         72
   6.4860        102
   6.5046         83
   6.5232         87
   6.5418         99
   6.5604        109
   6.5789         84
   6.5975         96
   6.6161         83
   6.6347         95
   6.6532         86
   6.6718         76
   6.6904        115
   6.7090         92
   6.7275         84
   6.7461         69
   6.7647         80
   6.7833         97
   6.8018         71
   6.8204         88
   6.8390         87
   6.8576         89
   6.8761         63
   6.8947         94
   6.9133         77
   6.9319         82
   6.9504         83
   6.9690         81
   6.9876         79
   7.0062         70
   7.0247         82
   7.0433         85
   7.0619         78
   7.0805         74
   7.0990         77
   7.1176         72
   7.1362         67
   7.1548         88
   7.1733         88
   7.1919         81
   7.2105         80
   7.2291         79
   7.2476         88
   7.2662         77
   7.2848         75
   7.3034         75
   7.3220         81
   7.3405         69
   7.3591         64
   7.3777         77
   7.3963         83
   7.4148         93
   7.4334         79
   7.4520         80
   7.4706         81
   7.4891         70
   7.5077         82
   7.5263         84
   7.5449         85
   7.5634        100
   7.5820         90
   7.6006         84
   7.6192         77
   7.6377        129
   7.6563         86
   7.6749         86
   7.6935        102
   7.7120         82
   7.7306         94
   7.7492         74
   7.7678         81
   7.7863         91
   7.8049         91
   7.8235         88
   7.8421         83
   7.8606         97
   7.8792         91
   7.8978         72
   7.9164         84
   7.9349         87
   7.9535         97
   7.9721         92
   7.9907         94
   8.0092         84
   8.0278        117
   8.0464        114
   8.0650         96
   8.0835        114
   8.1021         93
   8.1207        115
   8.1393        104
   8.1579         83
   8.1764         98
   8.1950         90
   8.2136        100
   8.2322         88
   8.2507         95
   8.2693         86
   8.2879         86
   8.3065         95
   8.3250        108
   8.3436         99
   8.3622        103
   8.3808         89
   8.3993        103
   8.4179        107
   8.4365        104
   8.4551        106
   8.4736         97
   8.4922        113
   8.5108        111
   8.5294         85
   8.5479        120
   8.5665         96
   8.5851         89
   8.6037        106
   8.6222        105
   8.6408        116
   8.6594        124
   8.6780         90
   8.6965        106
   8.7151         92
   8.7337        101
   8.7523        113
   8.7708        100
   8.7894         92
   8.8080        106
   8.8266        114
   8.8451         91
   8.8637        110
   8.8823         92
   8.9009         98
   8.9195         80
   8.9380        106
   8.9566         99
   8.9752        101
   8.9938         90
   9.0123        102
   9.0309        107
   9.0495         90
   9.0681        105
   9.0866         98
   9.1052        111
   9.1238        121
   9.1424        110
   9.1609        107
   9.1795        125
   9.1981         93
   9.2167        119
   9.2352         99
   9.2538        115
   9.2724        111
   9.2910        101
   9.3095         98
   9.3281        118
   9.3467        126
   9.3653        114
   9.3838         90
   9.4024         99
   9.4210        117
   9.4396        110
   9.4581         99
   9.4767         96
   9.4953        129
   9.5139        116
   9.5324        108
   9.5510        115
   9.5696        121
   9.5882        107
   9.6067        100
   9.6253        117
   9.6439        121
   9.6625        118
   9.6811        109
   9.6996        112
   9.7182         97
   9.7368        101
   9.7554         91
   9.7739         89
   9.7925        110
   9.8111        101
   9.8297        105
   9.8482        116
   9.8668        123
   9.8854        116
   9.9040        119
   9.9225        123
   9.9411        121
   9.9597        115
   9.9783        128
   9.9968        107
  10.0154        106
  10.0340        108
  10.0526        124
  10.0711        108
  10.0897        108
  10.1083        133
  10.1269        112
  10.1454        109
  10.1640        127
  10.1826        129
  10.2012        137
  10.2197        119
  10.2383        109
  10.2569        127
  10.2755        118
  10.2940        124
  10.3126        109
  10.3312        119
  10.3498        120
  10.3683        108
  10.3869        106
  10.4055        127
  10.4241        121
  10.4427        122
  10.4612        125
  10.4798        139
  10.4984        113
  10.5170        134
  10.5355        102
  10.5541        131
  10.5727        113
  10.5913        129
  10.6098        124
  10.6284        113
  10.6470        134
  10.6656        106
  10.6841        108
  10.7027        121
  10.7213        116
  10.7399        133
  10.7584        122
  10.7770        117
  10.7956        137
  10.8142        141
  10.8327        120
  10.8513        127
  10.8699        126
  10.8885        112
  10.9070        103
  10.9256        132
  10.9442        126
  10.9628         97
  10.9813        104
  10.9999        148
  11.0185        141
  11.0371        113
  11.0556        111
  11.0742        119
  11.0928        114
  11.1114        129
  11.1299        103
  11.1485        133
  11.1671        113
  11.1857        113
  11.2043        114
  11.2228        103
  11.2414        120
  11.2600        144
  11.2786        102
  11.2971        137
  11.3157        109
  11.3343        119
  11.3529        112
  11.3714        126
  11.3900        119
  11.4086        121
  11.4272        122
  11.4457        106
  11.4643        121
  11.4829        115
  11.5015         98
  11.5200        124
  11.5386        124
  11.5572        120
  11.5758        125
  11.5943        107
  11.6129        116
  11.6315        109
  11.6501        126
  11.6686        102
  11.6872        122
  11.7058        115
  11.7244        124
  11.7429        120
  11.7615        114
  11.7801        130
  11.7987        115
  11.8172        121
  11.8358        124
  11.8544        126
  11.8730        106
  11.8915        105
  11.9101        106
  11.9287        124
  11.9473        124
  11.9659        109
  11.9844        104
  12.0030        131
  12.0216        110
  12.0402        110
  12.0587        108
  12.0773        144
  12.0959         96
  12.1145        126
  12.1330        108
  12.1516         99
  12.1702        121
  12.1888        104
  12.2073        113
  12.2259        116
  12.2445        111
  12.2631        132
  12.2816        110
  12.3002         74
  12.3188        125
  12.3374        101
  12.3559        122
  12.3745         94
  12.3931        121
  12.4117         93
  12.4302        113
  12.4488         95
  12.4674         98
  12.4860         89
  12.5045        113
  12.5231        106
  12.5417        118
  12.5603        102
  12.5788        103
  12.5974         91
  12.6160        111
  12.6346        107
  12.6531         85
  12.6717        108
  12.6903        128
  12.7089        110
  12.7274        102
  12.7460         93
  12.7646         97
  12.7832         98
  12.8018         86
  12.8203        106
  12.8389        106
  12.8575        104
  12.8761         93
  12.8946         91
  12.9132        108
  12.9318         95
  12.9504         88
  12.9689         96
  12.9875        103
  13.0061         92
  13.0247        106
  13.0432        112
  13.0618        100
  13.0804        104
  13.0990        113
  13.1175        103
  13.1361        101
  13.1547         92
  13.1733         96
  13.1918        101
  13.2104        105
  13.2290        109
  13.2476        107
  13.2661         95
  13.2847         88
  13.3033         81
  13.3219        102
  13.3404         86
  13.3590         81
  13.3776        114
  13.3962         81
  13.4147         89
  13.4333        105
  13.4519         90
  13.4705         99
  13.4890         96
  13.5076         84
  13.5262        105
  13.5448         98
  13.5634         89
  13.5819         82
  13.6005         99
  13.6191         90
  13.6377         99
  13.6562        119
  13.6748         81
  13.6934        103
  13.7120         88
  13.7305        119
  13.7491        109
  13.7677         97
  13.7863         89
  13.8048        117
  13.8234         98
  13.8420         82
  13.8606         88
  13.8791        101
  13.8977         89
  13.9163         90
  13.9349         83
  13.9534         90
  13.9720         94
  13.9906         83
  14.0092        114
  14.0277         91
  14.0463         70
  14.0649         96
  14.0835         82
  14.1020         87
  14.1206         90
  14.1392         82
  14.1578        101
  14.1763         85
  14.1949         73
  14.2135         87
  14.2321         87
  14.2506        102
  14.2692         91
  14.2878         74
  14.3064         98
  14.3250        106
  14.3435         89
  14.3621         91
  14.3807         90
  14.3993         82
  14.4178         83
  14.4364         96
  14.4550         85
  14.4736         94
  14.4921         72
  14.5107         96
  14.5293         83
  14.5479         82
  14.5664         81
  14.5850         93
  14.6036         88
  14.6222        109
  14.6407         84
  14.6593         81
  14.6779         95
  14.6965         71
  14.7150         86
  14.7336         98
  14.7522         72
  14.7708         71
  14.7893         95
  14.8079         78
  14.8265         84
  14.8451         79
  14.8636         94
  14.8822         94
  14.9008         82
  14.9194         75
  14.9379         82
  14.9565         87
  14.9751         98
  14.9937         88
  15.0122         85
  15.0308         79
  15.0494         84
  15.0680         84
  15.0866         86
  15.1051         80
  15.1237         74
  15.1423         65
  15.1609         84
  15.1794         87
  15.1980         77
  15.2166         93
  15.2352         97
  15.2537         75
  15.2723         88
  15.2909         72
  15.3095         98
  15.3280         85
  15.3466         65
  15.3652         81
  15.3838         64
  15.4023         78
  15.4209         73
  15.4395         77
  15.4581         88
  15.4766         72
  15.4952         93
  15.5138         87
  15.5324         75
  15.5509         71
  15.5695         84
  15.5881         72
  15.6067         81
  15.6252         79
  15.6438         65
  15.6624         71
  15.6810         63
  15.6995         89
  15.7181         90
  15.7367         87
  15.7553         87
  15.7738         88
  15.7924         90
  15.8110         85
  15.8296         70
  15.8482         76
  15.8667         74
  15.8853         88
  15.9039         82
  15.9225         78
  15.9410         71
  15.9596         91
  15.9782         95
  15.9968         64
  16.0153         81
  16.0339         88
  16.0525         90
  16.0711         79
  16.0896         76
  16.1082         83
  16.1268         83
  16.1454         75
  16.1639         69
  16.1825         77
  16.2011         91
  16.2197         74
  16.2382         82
  16.2568         78
  16.2754         80
  16.2940         90
  16.3125         73
  16.3311         79
  16.3497         95
  16.3683         74
  16.3868         64
  16.4054         82
  16.4240         93
  16.4426         81
  16.4611         89
  16.4797         77
  16.4983         89
  16.5169        108
  16.5354         85
  16.5540         73
  16.5726         60
  16.5912         82
  16.6097         71
  16.6283         88
  16.6469         71
  16.6655         86
  16.6841         88
  16.7026         90
  16.7212         79
  16.7398         78
  16.7584         75
  16.7769         70
  16.7955         82
  16.8141         85
  16.8327         72
  16.8512         77
  16.8698         67
  16.8884         99
  16.9070         67
  16.9255         92
  16.9441         75
  16.9627         99
  16.9813         78
  16.9998         78
  17.0184         91
  17.0370         81
  17.0556         68
  17.0741         79
  17.0927         70
  17.1113         77
  17.1299         75
  17.1484         84
  17.1670         76
  17.1856         66
  17.2042         89
  17.2227         79
  17.2413         85
  17.2599         79
  17.2785         77
  17.2970        102
  17.3156         68
  17.3342         89
  17.3528         73
  17.3713         83
  17.3899         84
  17.4085         81
  17.4271         94
  17.4457         87
  17.4642         70
  17.4828        103
  17.5014         72
  17.5200         94
  17.5385         87
  17.5571        103
  17.5757         88
  17.5943         75
  17.6128         65
  17.6314         76
  17.6500         85
  17.6686         88
  17.6871         86
  17.7057         84
  17.7243         83
  17.7429         85
  17.7614        102
  17.7800         96
  17.7986         91
  17.8172         80
  17.8357         90
  17.8543         89
  17.8729         88
  17.8915         68
  17.9100         78
  17.9286         89
  17.9472         87
  17.9658         84
  17.9843         81
  18.0029         89
  18.0215         85
  18.0401         84
  18.0586         84
  18.0772         74
  18.0958         77
  18.1144        100
  18.1329         78
  18.1515         82
  18.1701         73
  18.1887         78
  18.2073         83
  18.2258         69
  18.2444         78
  18.2630         87
  18.2816         85
  18.3001         85
  18.3187         75
  18.3373         68
  18.3559         83
  18.3744         87
  18.3930         82
  18.4116         81
  18.4302         82
  18.4487         87
  18.4673        101
  18.4859         83
  18.5045         88
  18.5230         80
  18.5416         81
  18.5602         90
  18.5788         88
  18.5973         71
  18.6159         88
  18.6345         78
  18.6531         72
  18.6716         80
  18.6902         92
  18.7088         96
  18.7274         85
  18.7459         74
  18.7645         66
  18.7831         79
  18.8017         73
  18.8202         75
  18.8388         67
  18.8574         89
  18.8760         92
  18.8945         86
  18.9131         83
  18.9317         90
  18.9503         75
  18.9689         84
  18.9874         71
  19.0060         63
  19.0246         71
  19.0432         82
  19.0617         91
  19.0803         88
  19.0989         91
  19.1175         86
  19.1360         98
  19.1546         81
  19.1732         96
  19.1918         80
  19.2103         98
  19.2289         96
  19.2475         95
  19.2661         85
  19.2846         83
  19.3032         90
  19.3218        102
  19.3404         85
  19.3589         65
  19.3775         82
  19.3961         85
  19.4147         83
  19.4332         96
  19.4518         81
  19.4704         87
  19.4890         94
  19.5075         88
  19.5261         86
  19.5447         82
  19.5633         91
  19.5818         76
  19.6004         82
  19.6190         89
  19.6376         86
  19.6561         82
  19.6747         81
  19.6933         99
  19.7119         88
  19.7305         68
  19.7490         74
  19.7676        100
  19.7862         99
  19.8048         82
  19.8233         75
  19.8419         73
  19.8605         89
  19.8791         83
  19.8976         80
  19.9162        114
  19.9348         93
  19.9534         86
  19.9719         93
  19.9905         75
  20.0091         76
  20.0277         78
  20.0462         82
  20.0648         90
  20.0834         74
  20.1020         77
  20.1205         86
  20.1391         88
  20.1577         96
  20.1763         92
  20.1948         85
  20.2134         85
  20.2320         92
  20.2506         92
  20.2691         99
  20.2877         83
  20.3063         92
  20.3249         84
  20.3434         95
  20.3620         79
  20.3806         96
  20.3992         87
  20.4177         91
  20.4363         92
  20.4549         89
  20.4735         94
