; (content of file Y:\Sam\Apurva-07-20-2022\puck4\ML_20220718_44_SJD_4_LaB6-2min.raw)
_FILEVERSION = 3
_SAMPLE = ML_20220718_44_SJD_4_LaB6-2min
_+SAMPLE = 
_SITE = USA
_USER = Administrator
_GONIOMETER_CODE = 20
; Goniometer : D8 theta/2theta, stage : Unknown
_ATTACHMENTS_CODE = 0
_GONIOMETER_RADIUS = 200.5
_FIXED_DIVSLIT = 0.6
_FIXED_SAMPLESLIT = 0
_SOLLER_SLITS = 2
_FIXED_DETSLIT = 9.55
_MONOCHROMATOR = 0
; Incident beam monochromator : None
_SOLLER_SLITS_2 = N
_THIN_FILM = N
_BETA_FILTER = Y
_FIXED_ANTISLIT = 5.89
_ANALYZER_CODE = 0
; Received beam analyzer : None
_DATEMEASURED = "26-Jul-2022 12:13:17"
_WL_UNIT = A
_WL1 = 1.5406
_WL2 = 1.54439
_WL3 = 1.39222
_WLRATIO = 0.5
_ANODE = Cu
_V4_INF_CREATOR = XRDWizard
_V4_INF_CREATOR_VERSION = V2.9.0.22
_V4_INF_WIZARD_VERSION = V2.9.0.22
_V4_INF_WIZARD_ADDINS = V2.9.0.22
_V4_INF_WIZARD_DOCTYPE = XRD
_V4_INF_OSUSER = McQueenLab
_V4_INF_USER = Administrator
_V4_INF_SITE = USA
_V4_INF_SAMPLEID = ML_20220718_44_SJD_4_LaB6-2min

; Data for range 1
_DRIVE = COUPLED
_STEPTIME = 5.64
_STEPSIZE = 0.0185756
_STEPMODE = C
_START = 5
_THETA = 2.5
_2THETA = 5
_KHI = 0
_PHI = 0
_X = 0
_Y = 0
_Z = 0
_DETECTOR = 5
; Detector type : Unknown
_DETECTORSLIT = unkn
_AUX1 = 0
_AUX2 = 0
_AUX3 = 0
_TIMESTARTED = 14
_TEMP_RATE = -1
_TEMP_DELAY = -1
_KV = 40
_MA = 40
_RANGE_WL = 1.5406
_3DPLANE = 0
_V4_ADDITIONALDETECTOR = 257
_V4_PSD2THETA = 3.4135
_V4_PSDCHANNEL1 = 0
_V4_PSDAPERTURE = 12.68
_V4_PSDTYPE = 5
_V4_PSDFIXED = 0
_V4_COUNTERS_MASK = 4096
_V4_DRIVES_MASK = 0
_V4_ENCODERS_MASK = 0
_2THETACOUNTS = 1
; 2THETA  PSD
   5.0000        132
   5.0186        127
   5.0372        145
   5.0557        113
   5.0743        119
   5.0929        154
   5.1115         99
   5.1300        128
   5.1486        129
   5.1672        106
   5.1858        117
   5.2043        127
   5.2229         99
   5.2415         92
   5.2601        129
   5.2786        101
   5.2972        127
   5.3158        109
   5.3344        127
   5.3529        126
   5.3715        123
   5.3901        113
   5.4087        124
   5.4272        122
   5.4458        119
   5.4644         97
   5.4830        138
   5.5015        130
   5.5201        106
   5.5387        107
   5.5573        116
   5.5758        104
   5.5944        102
   5.6130        111
   5.6316        112
   5.6501        115
   5.6687        118
   5.6873        114
   5.7059        109
   5.7244        109
   5.7430        109
   5.7616        102
   5.7802        106
   5.7988        100
   5.8173        106
   5.8359         89
   5.8545        102
   5.8731        108
   5.8916         96
   5.9102         99
   5.9288        114
   5.9474        101
   5.9659         98
   5.9845         88
   6.0031        102
   6.0217         83
   6.0402        111
   6.0588         94
   6.0774         82
   6.0960         83
   6.1145         94
   6.1331         92
   6.1517         80
   6.1703         90
   6.1888         94
   6.2074        109
   6.2260         90
   6.2446         86
   6.2631         91
   6.2817         99
   6.3003         80
   6.3189         87
   6.3374         97
   6.3560        108
   6.3746         76
   6.3932         87
   6.4117         81
   6.4303         71
   6.4489         82
   6.4675         91
   6.4860         85
   6.5046        107
   6.5232         82
   6.5418        101
   6.5604         87
   6.5789         95
   6.5975         87
   6.6161        101
   6.6347         86
   6.6532         91
   6.6718         82
   6.6904         97
   6.7090         79
   6.7275         98
   6.7461         94
   6.7647         68
   6.7833         76
   6.8018         85
   6.8204         84
   6.8390         90
   6.8576         80
   6.8761         90
   6.8947         78
   6.9133         75
   6.9319        100
   6.9504         83
   6.9690         72
   6.9876         77
   7.0062         81
   7.0247         72
   7.0433         75
   7.0619         85
   7.0805         76
   7.0990         86
   7.1176         94
   7.1362         82
   7.1548         86
   7.1733         98
   7.1919         88
   7.2105         76
   7.2291         85
   7.2476         90
   7.2662         74
   7.2848         80
   7.3034         83
   7.3220         77
   7.3405         69
   7.3591         84
   7.3777         78
   7.3963         75
   7.4148         76
   7.4334         76
   7.4520         73
   7.4706         90
   7.4891         61
   7.5077         88
   7.5263         63
   7.5449         85
   7.5634        103
   7.5820         87
   7.6006         78
   7.6192         76
   7.6377         93
   7.6563         92
   7.6749         80
   7.6935         87
   7.7120         87
   7.7306        101
   7.7492         81
   7.7678         71
   7.7863         86
   7.8049         96
   7.8235         72
   7.8421        101
   7.8606         85
   7.8792         93
   7.8978         97
   7.9164         98
   7.9349        100
   7.9535        103
   7.9721         79
   7.9907         88
   8.0092         79
   8.0278         84
   8.0464         86
   8.0650         79
   8.0835        109
   8.1021         95
   8.1207         87
   8.1393         98
   8.1579         94
   8.1764         83
   8.1950        106
   8.2136         96
   8.2322         93
   8.2507        107
   8.2693         94
   8.2879         79
   8.3065        107
   8.3250         74
   8.3436        108
   8.3622        122
   8.3808         84
   8.3993         90
   8.4179        104
   8.4365        100
   8.4551         98
   8.4736        110
   8.4922        108
   8.5108         84
   8.5294        111
   8.5479         99
   8.5665        110
   8.5851        100
   8.6037         97
   8.6222         83
   8.6408         90
   8.6594         99
   8.6780         86
   8.6965         73
   8.7151        111
   8.7337        100
   8.7523        115
   8.7708        107
   8.7894         84
   8.8080         90
   8.8266        129
   8.8451         97
   8.8637        111
   8.8823        109
   8.9009        112
   8.9195         91
   8.9380         92
   8.9566        111
   8.9752         97
   8.9938        103
   9.0123         98
   9.0309         95
   9.0495         99
   9.0681         92
   9.0866         96
   9.1052         93
   9.1238        114
   9.1424         99
   9.1609        108
   9.1795        106
   9.1981         98
   9.2167        113
   9.2352        114
   9.2538        109
   9.2724         96
   9.2910        124
   9.3095        115
   9.3281        106
   9.3467        105
   9.3653        106
   9.3838        108
   9.4024        110
   9.4210        115
   9.4396        115
   9.4581        112
   9.4767         97
   9.4953        116
   9.5139         96
   9.5324        113
   9.5510        121
   9.5696        116
   9.5882        100
   9.6067         88
   9.6253        104
   9.6439        122
   9.6625        115
   9.6811        107
   9.6996        113
   9.7182        107
   9.7368        111
   9.7554        133
   9.7739        111
   9.7925        122
   9.8111        130
   9.8297        112
   9.8482        135
   9.8668        118
   9.8854        101
   9.9040        117
   9.9225        120
   9.9411        102
   9.9597        100
   9.9783        104
   9.9968        129
  10.0154        126
  10.0340        131
  10.0526         97
  10.0711        115
  10.0897        120
  10.1083        100
  10.1269        122
  10.1454        123
  10.1640        127
  10.1826        126
  10.2012        135
  10.2197        105
  10.2383        110
  10.2569        121
  10.2755        108
  10.2940        106
  10.3126        120
  10.3312        134
  10.3498        116
  10.3683        133
  10.3869        119
  10.4055        105
  10.4241        110
  10.4427        132
  10.4612        110
  10.4798        103
  10.4984        145
  10.5170        126
  10.5355        129
  10.5541        135
  10.5727        120
  10.5913        134
  10.6098        115
  10.6284        113
  10.6470        140
  10.6656        124
  10.6841        121
  10.7027        136
  10.7213        116
  10.7399        114
  10.7584        114
  10.7770        108
  10.7956        117
  10.8142        113
  10.8327        122
  10.8513         91
  10.8699        108
  10.8885        113
  10.9070        102
  10.9256        118
  10.9442        106
  10.9628        147
  10.9813        108
  10.9999        124
  11.0185        114
  11.0371        117
  11.0556         97
  11.0742        110
  11.0928        123
  11.1114        125
  11.1299        114
  11.1485        120
  11.1671        100
  11.1857        108
  11.2043        113
  11.2228         99
  11.2414         96
  11.2600        126
  11.2786        111
  11.2971        110
  11.3157        129
  11.3343         95
  11.3529        118
  11.3714        102
  11.3900        105
  11.4086        110
  11.4272        124
  11.4457        113
  11.4643        107
  11.4829        111
  11.5015        148
  11.5200        123
  11.5386        120
  11.5572        115
  11.5758        129
  11.5943        130
  11.6129        104
  11.6315        117
  11.6501        109
  11.6686        117
  11.6872        115
  11.7058        114
  11.7244        129
  11.7429        120
  11.7615        120
  11.7801        106
  11.7987        137
  11.8172        108
  11.8358        106
  11.8544         99
  11.8730        102
  11.8915        104
  11.9101        116
  11.9287        125
  11.9473         97
  11.9659        122
  11.9844        111
  12.0030         89
  12.0216        104
  12.0402         90
  12.0587        108
  12.0773        124
  12.0959        123
  12.1145        117
  12.1330        123
  12.1516        111
  12.1702         98
  12.1888        102
  12.2073        122
  12.2259        113
  12.2445        125
  12.2631        126
  12.2816         93
  12.3002         98
  12.3188         95
  12.3374         99
  12.3559        113
  12.3745        113
  12.3931        133
  12.4117        103
  12.4302        111
  12.4488        101
  12.4674         97
  12.4860        120
  12.5045        114
  12.5231        129
  12.5417        121
  12.5603        115
  12.5788         93
  12.5974         93
  12.6160         98
  12.6346         95
  12.6531        110
  12.6717        101
  12.6903        106
  12.7089        113
  12.7274        104
  12.7460        130
  12.7646        105
  12.7832        104
  12.8018        121
  12.8203        101
  12.8389         91
  12.8575        102
  12.8761         86
  12.8946         97
  12.9132        106
  12.9318         94
  12.9504        103
  12.9689         99
  12.9875        111
  13.0061        136
  13.0247         99
  13.0432         89
  13.0618         89
  13.0804        102
  13.0990        102
  13.1175        116
  13.1361        102
  13.1547         95
  13.1733        111
  13.1918         76
  13.2104        102
  13.2290        102
  13.2476        102
  13.2661         84
  13.2847        115
  13.3033         96
  13.3219        105
  13.3404         99
  13.3590        114
  13.3776        110
  13.3962        104
  13.4147         90
  13.4333        108
  13.4519         75
  13.4705        103
  13.4890        107
  13.5076        100
  13.5262         98
  13.5448        113
  13.5634        100
  13.5819         84
  13.6005        105
  13.6191        100
  13.6377         89
  13.6562         82
  13.6748         85
  13.6934        103
  13.7120         85
  13.7305         94
  13.7491         97
  13.7677        108
  13.7863         84
  13.8048         98
  13.8234         78
  13.8420         90
  13.8606        102
  13.8791        100
  13.8977         82
  13.9163         92
  13.9349         95
  13.9534         99
  13.9720         80
  13.9906         94
  14.0092         93
  14.0277         77
  14.0463        103
  14.0649         98
  14.0835         99
  14.1020         97
  14.1206         76
  14.1392         82
  14.1578         96
  14.1763        103
  14.1949         95
  14.2135        104
  14.2321         87
  14.2506         86
  14.2692         98
  14.2878         90
  14.3064         81
  14.3250        101
  14.3435         96
  14.3621         93
  14.3807         76
  14.3993         79
  14.4178         85
  14.4364        109
  14.4550         74
  14.4736         67
  14.4921         84
  14.5107         80
  14.5293         90
  14.5479         88
  14.5664         89
  14.5850        103
  14.6036         91
  14.6222         87
  14.6407         93
  14.6593         98
  14.6779         87
  14.6965         77
  14.7150         77
  14.7336        114
  14.7522         80
  14.7708         85
  14.7893         89
  14.8079         78
  14.8265         73
  14.8451         91
  14.8636         80
  14.8822         87
  14.9008         79
  14.9194         69
  14.9379         87
  14.9565         77
  14.9751         67
  14.9937         87
  15.0122         73
  15.0308         84
  15.0494         72
  15.0680         84
  15.0866         68
  15.1051         67
  15.1237         85
  15.1423         75
  15.1609         63
  15.1794         82
  15.1980         80
  15.2166         95
  15.2352         84
  15.2537         78
  15.2723         64
  15.2909         90
  15.3095         79
  15.3280         68
  15.3466         74
  15.3652         82
  15.3838        100
  15.4023        108
  15.4209         87
  15.4395         81
  15.4581         79
  15.4766         76
  15.4952         80
  15.5138         78
  15.5324         68
  15.5509         93
  15.5695         87
  15.5881         74
  15.6067         85
  15.6252         83
  15.6438         98
  15.6624        102
  15.6810         85
  15.6995         82
  15.7181         81
  15.7367         79
  15.7553         78
  15.7738         78
  15.7924         70
  15.8110         74
  15.8296         78
  15.8482         79
  15.8667         87
  15.8853         90
  15.9039         80
  15.9225         84
  15.9410         74
  15.9596         72
  15.9782         81
  15.9968         79
  16.0153         89
  16.0339         76
  16.0525         67
  16.0711        104
  16.0896         77
  16.1082         80
  16.1268         74
  16.1454         75
  16.1639         78
  16.1825         64
  16.2011         76
  16.2197         84
  16.2382         73
  16.2568         76
  16.2754         84
  16.2940         81
  16.3125         77
  16.3311         75
  16.3497         64
  16.3683         86
  16.3868         73
  16.4054         79
  16.4240         84
  16.4426         72
  16.4611         93
  16.4797         86
  16.4983         75
  16.5169         64
  16.5354         71
  16.5540         82
  16.5726         66
  16.5912         74
  16.6097         87
  16.6283         84
  16.6469         95
  16.6655         89
  16.6841         80
  16.7026         86
  16.7212         87
  16.7398         72
  16.7584         87
  16.7769         93
  16.7955         95
  16.8141         81
  16.8327         79
  16.8512         74
  16.8698         65
  16.8884         76
  16.9070         74
  16.9255         72
  16.9441         76
  16.9627         86
  16.9813         68
  16.9998         83
  17.0184        100
  17.0370         84
  17.0556         75
  17.0741         81
  17.0927         84
  17.1113         81
  17.1299        102
  17.1484         99
  17.1670         80
  17.1856         88
  17.2042         92
  17.2227         81
  17.2413         88
  17.2599         84
  17.2785         61
  17.2970         76
  17.3156         73
  17.3342         91
  17.3528         79
  17.3713         93
  17.3899         70
  17.4085         72
  17.4271         75
  17.4457         62
  17.4642         67
  17.4828         89
  17.5014         84
  17.5200         75
  17.5385         87
  17.5571         80
  17.5757         84
  17.5943         81
  17.6128         83
  17.6314         79
  17.6500         74
  17.6686         73
  17.6871         80
  17.7057         75
  17.7243         88
  17.7429         76
  17.7614         76
  17.7800         79
  17.7986         73
  17.8172         70
  17.8357         77
  17.8543         84
  17.8729         78
  17.8915         93
  17.9100         67
  17.9286         93
  17.9472         79
  17.9658         72
  17.9843         78
  18.0029         74
  18.0215         84
  18.0401         77
  18.0586         88
  18.0772         87
  18.0958         61
  18.1144         84
  18.1329         72
  18.1515         92
  18.1701         85
  18.1887         99
  18.2073         70
  18.2258         58
  18.2444         82
  18.2630         79
  18.2816         77
  18.3001         71
  18.3187         72
  18.3373         81
  18.3559         84
  18.3744         84
  18.3930         81
  18.4116         88
  18.4302         92
  18.4487         65
  18.4673         75
  18.4859         88
  18.5045         87
  18.5230         89
  18.5416        100
  18.5602         86
  18.5788         82
  18.5973         73
  18.6159         83
  18.6345         75
  18.6531         87
  18.6716         90
  18.6902         92
  18.7088         83
  18.7274         94
  18.7459         91
  18.7645         82
  18.7831         72
  18.8017         92
  18.8202         72
  18.8388         62
  18.8574         80
  18.8760         89
  18.8945         95
  18.9131         78
  18.9317         84
  18.9503        106
  18.9689         75
  18.9874         90
  19.0060         93
  19.0246         98
  19.0432         96
  19.0617         79
  19.0803         82
  19.0989         99
  19.1175         96
  19.1360         74
  19.1546         71
  19.1732         73
  19.1918         87
  19.2103         98
  19.2289         72
  19.2475         91
  19.2661         89
  19.2846        102
  19.3032         79
  19.3218         82
  19.3404         84
  19.3589         84
  19.3775         96
  19.3961         70
  19.4147         71
  19.4332         76
  19.4518         83
  19.4704         82
  19.4890         81
  19.5075         82
  19.5261         86
  19.5447         98
  19.5633         77
  19.5818         78
  19.6004         93
  19.6190         96
  19.6376         77
  19.6561         79
  19.6747         96
  19.6933         90
  19.7119         95
  19.7305         98
  19.7490         98
  19.7676         93
  19.7862         95
  19.8048         83
  19.8233         97
  19.8419         80
  19.8605        116
  19.8791         86
  19.8976         95
  19.9162         96
  19.9348         97
  19.9534         80
  19.9719         87
  19.9905         84
  20.0091         92
  20.0277         89
  20.0462         87
  20.0648         80
  20.0834         89
  20.1020         84
  20.1205         77
  20.1391         89
  20.1577         57
  20.1763        112
  20.1948         81
  20.2134         94
  20.2320        101
  20.2506         89
  20.2691         87
  20.2877         78
  20.3063         94
  20.3249         92
  20.3434        108
  20.3620         77
  20.3806         91
  20.3992         72
  20.4177        101
  20.4363        111
  20.4549         90
  20.4735         97
