; (content of file Y:\Sam\Apurva-07-20-2022\puck4\ML_20220718_29_SJD_0_LaB6-2min.raw)
_FILEVERSION = 3
_SAMPLE = ML_20220718_29_SJD_0_LaB6-2min
_+SAMPLE = 
_SITE = USA
_USER = Administrator
_GONIOMETER_CODE = 20
; Goniometer : D8 theta/2theta, stage : Unknown
_ATTACHMENTS_CODE = 0
_GONIOMETER_RADIUS = 200.5
_FIXED_DIVSLIT = 0.6
_FIXED_SAMPLESLIT = 0
_SOLLER_SLITS = 2
_FIXED_DETSLIT = 9.55
_MONOCHROMATOR = 0
; Incident beam monochromator : None
_SOLLER_SLITS_2 = N
_THIN_FILM = N
_BETA_FILTER = Y
_FIXED_ANTISLIT = 5.89
_ANALYZER_CODE = 0
; Received beam analyzer : None
_DATEMEASURED = "26-Jul-2022 09:16:00"
_WL_UNIT = A
_WL1 = 1.5406
_WL2 = 1.54439
_WL3 = 1.39222
_WLRATIO = 0.5
_ANODE = Cu
_V4_INF_CREATOR = XRDWizard
_V4_INF_CREATOR_VERSION = V2.9.0.22
_V4_INF_WIZARD_VERSION = V2.9.0.22
_V4_INF_WIZARD_ADDINS = V2.9.0.22
_V4_INF_WIZARD_DOCTYPE = XRD
_V4_INF_OSUSER = McQueenLab
_V4_INF_USER = Administrator
_V4_INF_SITE = USA
_V4_INF_SAMPLEID = ML_20220718_29_SJD_0_LaB6-2min

; Data for range 1
_DRIVE = COUPLED
_STEPTIME = 5.64
_STEPSIZE = 0.0185756
_STEPMODE = C
_START = 5
_THETA = 2.5
_2THETA = 5
_KHI = 0
_PHI = 0
_X = 0
_Y = 0
_Z = 0
_DETECTOR = 5
; Detector type : Unknown
_DETECTORSLIT = unkn
_AUX1 = 0
_AUX2 = 0
_AUX3 = 0
_TIMESTARTED = 14
_TEMP_RATE = -1
_TEMP_DELAY = -1
_KV = 40
_MA = 40
_RANGE_WL = 1.5406
_3DPLANE = 0
_V4_ADDITIONALDETECTOR = 257
_V4_PSD2THETA = 3.4232
_V4_PSDCHANNEL1 = 0
_V4_PSDAPERTURE = 12.68
_V4_PSDTYPE = 5
_V4_PSDFIXED = 0
_V4_COUNTERS_MASK = 4096
_V4_DRIVES_MASK = 0
_V4_ENCODERS_MASK = 0
_2THETACOUNTS = 1
; 2THETA  PSD
   5.0000        141
   5.0186        140
   5.0372        146
   5.0557        136
   5.0743        143
   5.0929        151
   5.1115        118
   5.1300        115
   5.1486        126
   5.1672        108
   5.1858        122
   5.2043        118
   5.2229        122
   5.2415        116
   5.2601        124
   5.2786        126
   5.2972        137
   5.3158        119
   5.3344        103
   5.3529        137
   5.3715        131
   5.3901        113
   5.4087        111
   5.4272        126
   5.4458        128
   5.4644        110
   5.4830        112
   5.5015        103
   5.5201        114
   5.5387        106
   5.5573        100
   5.5758        101
   5.5944        106
   5.6130         99
   5.6316        107
   5.6501         75
   5.6687        102
   5.6873        106
   5.7059        115
   5.7244        111
   5.7430        115
   5.7616         98
   5.7802         99
   5.7988        109
   5.8173         91
   5.8359        115
   5.8545        117
   5.8731        113
   5.8916        102
   5.9102         99
   5.9288        117
   5.9474         92
   5.9659        126
   5.9845         98
   6.0031        103
   6.0217        100
   6.0402         86
   6.0588        101
   6.0774        123
   6.0960         95
   6.1145        111
   6.1331         92
   6.1517        105
   6.1703         98
   6.1888         97
   6.2074         78
   6.2260         97
   6.2446         91
   6.2631         93
   6.2817        104
   6.3003        105
   6.3189         87
   6.3374         79
   6.3560         91
   6.3746         90
   6.3932         92
   6.4117         89
   6.4303         89
   6.4489        116
   6.4675         94
   6.4860         86
   6.5046         74
   6.5232         85
   6.5418         76
   6.5604        117
   6.5789         82
   6.5975         85
   6.6161        116
   6.6347         82
   6.6532         94
   6.6718         87
   6.6904         88
   6.7090        100
   6.7275         79
   6.7461         65
   6.7647         84
   6.7833         77
   6.8018         76
   6.8204         89
   6.8390         86
   6.8576         67
   6.8761        102
   6.8947         83
   6.9133         80
   6.9319         90
   6.9504         63
   6.9690         78
   6.9876         84
   7.0062         90
   7.0247         77
   7.0433         94
   7.0619         93
   7.0805         94
   7.0990         77
   7.1176         60
   7.1362         69
   7.1548         78
   7.1733         90
   7.1919         82
   7.2105         91
   7.2291         69
   7.2476         87
   7.2662         81
   7.2848         79
   7.3034         72
   7.3220         68
   7.3405         89
   7.3591         79
   7.3777         75
   7.3963         73
   7.4148         93
   7.4334         87
   7.4520         80
   7.4706         86
   7.4891         81
   7.5077        103
   7.5263         68
   7.5449         79
   7.5634         87
   7.5820         62
   7.6006         90
   7.6192         87
   7.6377         78
   7.6563         89
   7.6749         67
   7.6935         95
   7.7120        110
   7.7306         86
   7.7492         93
   7.7678         85
   7.7863        101
   7.8049         83
   7.8235         83
   7.8421        101
   7.8606         99
   7.8792         92
   7.8978         92
   7.9164         85
   7.9349         96
   7.9535         82
   7.9721        102
   7.9907        107
   8.0092         88
   8.0278         97
   8.0464         92
   8.0650         92
   8.0835         78
   8.1021         91
   8.1207         82
   8.1393         84
   8.1579         97
   8.1764         84
   8.1950         96
   8.2136         84
   8.2322         91
   8.2507         84
   8.2693         89
   8.2879         96
   8.3065        100
   8.3250         85
   8.3436         99
   8.3622        102
   8.3808        100
   8.3993        107
   8.4179        101
   8.4365        105
   8.4551         91
   8.4736         94
   8.4922         80
   8.5108         91
   8.5294        103
   8.5479        106
   8.5665         94
   8.5851         90
   8.6037         85
   8.6222        104
   8.6408         91
   8.6594        112
   8.6780        110
   8.6965         83
   8.7151        121
   8.7337        100
   8.7523        102
   8.7708         93
   8.7894         97
   8.8080        112
   8.8266        110
   8.8451         88
   8.8637        127
   8.8823         91
   8.9009        120
   8.9195         87
   8.9380        121
   8.9566        136
   8.9752         94
   8.9938        125
   9.0123        115
   9.0309         93
   9.0495        121
   9.0681        128
   9.0866        125
   9.1052         92
   9.1238        122
   9.1424        106
   9.1609        103
   9.1795         88
   9.1981        101
   9.2167         99
   9.2352        102
   9.2538        102
   9.2724        114
   9.2910         99
   9.3095        113
   9.3281        111
   9.3467        114
   9.3653        119
   9.3838        100
   9.4024        102
   9.4210        105
   9.4396        106
   9.4581        125
   9.4767        129
   9.4953        107
   9.5139        110
   9.5324        136
   9.5510        118
   9.5696        101
   9.5882        108
   9.6067        105
   9.6253         99
   9.6439        119
   9.6625        102
   9.6811        106
   9.6996        110
   9.7182        101
   9.7368         96
   9.7554        106
   9.7739        100
   9.7925        117
   9.8111        120
   9.8297        114
   9.8482        107
   9.8668        108
   9.8854        116
   9.9040        118
   9.9225        121
   9.9411        110
   9.9597        120
   9.9783        123
   9.9968        125
  10.0154        116
  10.0340        140
  10.0526        129
  10.0711        116
  10.0897         94
  10.1083         92
  10.1269        110
  10.1454        119
  10.1640        118
  10.1826        110
  10.2012        116
  10.2197        107
  10.2383        135
  10.2569        108
  10.2755        128
  10.2940        111
  10.3126         98
  10.3312        121
  10.3498        129
  10.3683        114
  10.3869        115
  10.4055        116
  10.4241        142
  10.4427        110
  10.4612         99
  10.4798        102
  10.4984        139
  10.5170        118
  10.5355        109
  10.5541        115
  10.5727        116
  10.5913        108
  10.6098        117
  10.6284        108
  10.6470        119
  10.6656         93
  10.6841        113
  10.7027        135
  10.7213        102
  10.7399        122
  10.7584        108
  10.7770        105
  10.7956        110
  10.8142        108
  10.8327        123
  10.8513        140
  10.8699        126
  10.8885        116
  10.9070        119
  10.9256        133
  10.9442        121
  10.9628        109
  10.9813        121
  10.9999        123
  11.0185        130
  11.0371        127
  11.0556        121
  11.0742        118
  11.0928        112
  11.1114        105
  11.1299        115
  11.1485        104
  11.1671        105
  11.1857        139
  11.2043        135
  11.2228        130
  11.2414        119
  11.2600        125
  11.2786        109
  11.2971        120
  11.3157        128
  11.3343        124
  11.3529        125
  11.3714        116
  11.3900         84
  11.4086        131
  11.4272        135
  11.4457        114
  11.4643        107
  11.4829         99
  11.5015         93
  11.5200        120
  11.5386        130
  11.5572        108
  11.5758        113
  11.5943        119
  11.6129        119
  11.6315        123
  11.6501        105
  11.6686        121
  11.6872        101
  11.7058        101
  11.7244        113
  11.7429        102
  11.7615        100
  11.7801        125
  11.7987        103
  11.8172         95
  11.8358        110
  11.8544        107
  11.8730        107
  11.8915        134
  11.9101        132
  11.9287        100
  11.9473         98
  11.9659        108
  11.9844        106
  12.0030        120
  12.0216        120
  12.0402        115
  12.0587        123
  12.0773        122
  12.0959        115
  12.1145        105
  12.1330        105
  12.1516        103
  12.1702        101
  12.1888        117
  12.2073        110
  12.2259        111
  12.2445        128
  12.2631         99
  12.2816        114
  12.3002         97
  12.3188        105
  12.3374        126
  12.3559        119
  12.3745        132
  12.3931         89
  12.4117        114
  12.4302        110
  12.4488        101
  12.4674        100
  12.4860        108
  12.5045        116
  12.5231         99
  12.5417         96
  12.5603         99
  12.5788        105
  12.5974         94
  12.6160         89
  12.6346        106
  12.6531        111
  12.6717        104
  12.6903        115
  12.7089        107
  12.7274         96
  12.7460        107
  12.7646        101
  12.7832        104
  12.8018         96
  12.8203         86
  12.8389        111
  12.8575         87
  12.8761        106
  12.8946        104
  12.9132         88
  12.9318        109
  12.9504         95
  12.9689        119
  12.9875         93
  13.0061         83
  13.0247        113
  13.0432         93
  13.0618         96
  13.0804        128
  13.0990        108
  13.1175         98
  13.1361         75
  13.1547         94
  13.1733         92
  13.1918        111
  13.2104         98
  13.2290        102
  13.2476         87
  13.2661        103
  13.2847        102
  13.3033        100
  13.3219         99
  13.3404        113
  13.3590         98
  13.3776         97
  13.3962         87
  13.4147        106
  13.4333         94
  13.4519        114
  13.4705         93
  13.4890        110
  13.5076        106
  13.5262         83
  13.5448        103
  13.5634        104
  13.5819        101
  13.6005         94
  13.6191         84
  13.6377         80
  13.6562         96
  13.6748         74
  13.6934        113
  13.7120         91
  13.7305        104
  13.7491         88
  13.7677        107
  13.7863         87
  13.8048         80
  13.8234         77
  13.8420        112
  13.8606         89
  13.8791         88
  13.8977         91
  13.9163         85
  13.9349         90
  13.9534         92
  13.9720         72
  13.9906         97
  14.0092         82
  14.0277         90
  14.0463         93
  14.0649         88
  14.0835         87
  14.1020         89
  14.1206         76
  14.1392         85
  14.1578         92
  14.1763         98
  14.1949         81
  14.2135         97
  14.2321         91
  14.2506         93
  14.2692         77
  14.2878         72
  14.3064         79
  14.3250         96
  14.3435         97
  14.3621         90
  14.3807        108
  14.3993         89
  14.4178         75
  14.4364         89
  14.4550         79
  14.4736         91
  14.4921         86
  14.5107         80
  14.5293         72
  14.5479        100
  14.5664         59
  14.5850         75
  14.6036         79
  14.6222         91
  14.6407         79
  14.6593         71
  14.6779         79
  14.6965         67
  14.7150         90
  14.7336         84
  14.7522         88
  14.7708         73
  14.7893         95
  14.8079         85
  14.8265         87
  14.8451         89
  14.8636         92
  14.8822         92
  14.9008         71
  14.9194         89
  14.9379         60
  14.9565         75
  14.9751         75
  14.9937         88
  15.0122         73
  15.0308         82
  15.0494         85
  15.0680         76
  15.0866         78
  15.1051         85
  15.1237         74
  15.1423         78
  15.1609         79
  15.1794         89
  15.1980         71
  15.2166         84
  15.2352         82
  15.2537         73
  15.2723         88
  15.2909         84
  15.3095         89
  15.3280         88
  15.3466         88
  15.3652         80
  15.3838         92
  15.4023         85
  15.4209         72
  15.4395         70
  15.4581         76
  15.4766         81
  15.4952         93
  15.5138         80
  15.5324         64
  15.5509         97
  15.5695         84
  15.5881         92
  15.6067         74
  15.6252         79
  15.6438         85
  15.6624         80
  15.6810         85
  15.6995         80
  15.7181         79
  15.7367         80
  15.7553         93
  15.7738         77
  15.7924         94
  15.8110         69
  15.8296         93
  15.8482         97
  15.8667         83
  15.8853         92
  15.9039         75
  15.9225         78
  15.9410         69
  15.9596         89
  15.9782         83
  15.9968         89
  16.0153         76
  16.0339         73
  16.0525         82
  16.0711         80
  16.0896         89
  16.1082         79
  16.1268         84
  16.1454         88
  16.1639         78
  16.1825         85
  16.2011         80
  16.2197         87
  16.2382         76
  16.2568         85
  16.2754         98
  16.2940         91
  16.3125         66
  16.3311         80
  16.3497         87
  16.3683         85
  16.3868         76
  16.4054         79
  16.4240         76
  16.4426         77
  16.4611        100
  16.4797         77
  16.4983         92
  16.5169         87
  16.5354         67
  16.5540         92
  16.5726         78
  16.5912         86
  16.6097         82
  16.6283         67
  16.6469         86
  16.6655        103
  16.6841         69
  16.7026         80
  16.7212         95
  16.7398         97
  16.7584         75
  16.7769         73
  16.7955         91
  16.8141         73
  16.8327         87
  16.8512         76
  16.8698         61
  16.8884         86
  16.9070         66
  16.9255         81
  16.9441         68
  16.9627         75
  16.9813         81
  16.9998         87
  17.0184        100
  17.0370         71
  17.0556         79
  17.0741         80
  17.0927         75
  17.1113         67
  17.1299         70
  17.1484         85
  17.1670         88
  17.1856         85
  17.2042         93
  17.2227         88
  17.2413         84
  17.2599         82
  17.2785         87
  17.2970         72
  17.3156         88
  17.3342         73
  17.3528         59
  17.3713         69
  17.3899         93
  17.4085         92
  17.4271         82
  17.4457         91
  17.4642         88
  17.4828        102
  17.5014         82
  17.5200         86
  17.5385         90
  17.5571         75
  17.5757         87
  17.5943         69
  17.6128         82
  17.6314         91
  17.6500         70
  17.6686         91
  17.6871         76
  17.7057         73
  17.7243         97
  17.7429         76
  17.7614         88
  17.7800         64
  17.7986         74
  17.8172         76
  17.8357         79
  17.8543         82
  17.8729         79
  17.8915         83
  17.9100         67
  17.9286         84
  17.9472         94
  17.9658         80
  17.9843         63
  18.0029         73
  18.0215         76
  18.0401         80
  18.0586         88
  18.0772         94
  18.0958         80
  18.1144         80
  18.1329         87
  18.1515         84
  18.1701         65
  18.1887         74
  18.2073         71
  18.2258         81
  18.2444         95
  18.2630         77
  18.2816         85
  18.3001         78
  18.3187         79
  18.3373         84
  18.3559         86
  18.3744         92
  18.3930         83
  18.4116         76
  18.4302         68
  18.4487         73
  18.4673         75
  18.4859         83
  18.5045         67
  18.5230         77
  18.5416         83
  18.5602         92
  18.5788         88
  18.5973         89
  18.6159         90
  18.6345         92
  18.6531         75
  18.6716         85
  18.6902         91
  18.7088         89
  18.7274         88
  18.7459         96
  18.7645        106
  18.7831         80
  18.8017         85
  18.8202         74
  18.8388         70
  18.8574         75
  18.8760         87
  18.8945         91
  18.9131         89
  18.9317         54
  18.9503         82
  18.9689         80
  18.9874         90
  19.0060         70
  19.0246         96
  19.0432         74
  19.0617         60
  19.0803         74
  19.0989         78
  19.1175         89
  19.1360         87
  19.1546         72
  19.1732         77
  19.1918         87
  19.2103         90
  19.2289         97
  19.2475         64
  19.2661         87
  19.2846         95
  19.3032         79
  19.3218         85
  19.3404         90
  19.3589        104
  19.3775         89
  19.3961         80
  19.4147         82
  19.4332         87
  19.4518         74
  19.4704         91
  19.4890         94
  19.5075         78
  19.5261         83
  19.5447         92
  19.5633         93
  19.5818         84
  19.6004        101
  19.6190         80
  19.6376         88
  19.6561         85
  19.6747         77
  19.6933         73
  19.7119         81
  19.7305         85
  19.7490        102
  19.7676         96
  19.7862         87
  19.8048         97
  19.8233        107
  19.8419         92
  19.8605         93
  19.8791        101
  19.8976        101
  19.9162         60
  19.9348         96
  19.9534         93
  19.9719         73
  19.9905         83
  20.0091         87
  20.0277         80
  20.0462         84
  20.0648         81
  20.0834         96
  20.1020         77
  20.1205         83
  20.1391         89
  20.1577         82
  20.1763         87
  20.1948         92
  20.2134         93
  20.2320         88
  20.2506         76
  20.2691         78
  20.2877         80
  20.3063         81
  20.3249         95
  20.3434         98
  20.3620         97
  20.3806        105
  20.3992         83
  20.4177         87
  20.4363         98
  20.4549         94
  20.4735        100
