; (content of file Y:\Sam\Apurva-07-20-2022\puck4\ML_20220718_55_SJD_4_LaB6-2min.raw)
_FILEVERSION = 3
_SAMPLE = ML_20220718_55_SJD_4_LaB6-2min
_+SAMPLE = 
_SITE = USA
_USER = Administrator
_GONIOMETER_CODE = 20
; Goniometer : D8 theta/2theta, stage : Unknown
_ATTACHMENTS_CODE = 0
_GONIOMETER_RADIUS = 200.5
_FIXED_DIVSLIT = 0.6
_FIXED_SAMPLESLIT = 0
_SOLLER_SLITS = 2
_FIXED_DETSLIT = 9.55
_MONOCHROMATOR = 0
; Incident beam monochromator : None
_SOLLER_SLITS_2 = N
_THIN_FILM = N
_BETA_FILTER = Y
_FIXED_ANTISLIT = 5.89
_ANALYZER_CODE = 0
; Received beam analyzer : None
_DATEMEASURED = "26-Jul-2022 12:39:36"
_WL_UNIT = A
_WL1 = 1.5406
_WL2 = 1.54439
_WL3 = 1.39222
_WLRATIO = 0.5
_ANODE = Cu
_V4_INF_CREATOR = XRDWizard
_V4_INF_CREATOR_VERSION = V2.9.0.22
_V4_INF_WIZARD_VERSION = V2.9.0.22
_V4_INF_WIZARD_ADDINS = V2.9.0.22
_V4_INF_WIZARD_DOCTYPE = XRD
_V4_INF_OSUSER = McQueenLab
_V4_INF_USER = Administrator
_V4_INF_SITE = USA
_V4_INF_SAMPLEID = ML_20220718_55_SJD_4_LaB6-2min

; Data for range 1
_DRIVE = COUPLED
_STEPTIME = 5.64
_STEPSIZE = 0.0185756
_STEPMODE = C
_START = 5
_THETA = 2.5
_2THETA = 5
_KHI = 0
_PHI = 0
_X = 0
_Y = 0
_Z = 0
_DETECTOR = 5
; Detector type : Unknown
_DETECTORSLIT = unkn
_AUX1 = 0
_AUX2 = 0
_AUX3 = 0
_TIMESTARTED = 15
_TEMP_RATE = -1
_TEMP_DELAY = -1
_KV = 40
_MA = 40
_RANGE_WL = 1.5406
_3DPLANE = 0
_V4_ADDITIONALDETECTOR = 257
_V4_PSD2THETA = 3.4187
_V4_PSDCHANNEL1 = 0
_V4_PSDAPERTURE = 12.68
_V4_PSDTYPE = 5
_V4_PSDFIXED = 0
_V4_COUNTERS_MASK = 4096
_V4_DRIVES_MASK = 0
_V4_ENCODERS_MASK = 0
_2THETACOUNTS = 1
; 2THETA  PSD
   5.0000        138
   5.0186        127
   5.0372        134
   5.0557        131
   5.0743        120
   5.0929        144
   5.1115        121
   5.1300        128
   5.1486        134
   5.1672        128
   5.1858        114
   5.2043        129
   5.2229        119
   5.2415        127
   5.2601        130
   5.2786        108
   5.2972        118
   5.3158        111
   5.3344        125
   5.3529        108
   5.3715        120
   5.3901        105
   5.4087        122
   5.4272        114
   5.4458        109
   5.4644        117
   5.4830        104
   5.5015        123
   5.5201        114
   5.5387        125
   5.5573        110
   5.5758        128
   5.5944        104
   5.6130        110
   5.6316        109
   5.6501        135
   5.6687        108
   5.6873         93
   5.7059        101
   5.7244        112
   5.7430        101
   5.7616         88
   5.7802         83
   5.7988        108
   5.8173        101
   5.8359         99
   5.8545         87
   5.8731        110
   5.8916         93
   5.9102         89
   5.9288        101
   5.9474        102
   5.9659         87
   5.9845         88
   6.0031         85
   6.0217         98
   6.0402         95
   6.0588        115
   6.0774        101
   6.0960        102
   6.1145         73
   6.1331        114
   6.1517         88
   6.1703         82
   6.1888         87
   6.2074         86
   6.2260        105
   6.2446         79
   6.2631        104
   6.2817         94
   6.3003         85
   6.3189         89
   6.3374         96
   6.3560         95
   6.3746         86
   6.3932         91
   6.4117         94
   6.4303         98
   6.4489         77
   6.4675         90
   6.4860         89
   6.5046         93
   6.5232         80
   6.5418         73
   6.5604         84
   6.5789         85
   6.5975         83
   6.6161         73
   6.6347         79
   6.6532         93
   6.6718         79
   6.6904         88
   6.7090         90
   6.7275         70
   6.7461         90
   6.7647         96
   6.7833         91
   6.8018         74
   6.8204         81
   6.8390         76
   6.8576         72
   6.8761         81
   6.8947         89
   6.9133         91
   6.9319         74
   6.9504         75
   6.9690         73
   6.9876         70
   7.0062         78
   7.0247         77
   7.0433         84
   7.0619         87
   7.0805         71
   7.0990         76
   7.1176         81
   7.1362         77
   7.1548         81
   7.1733         77
   7.1919         87
   7.2105         69
   7.2291         81
   7.2476         85
   7.2662         89
   7.2848         86
   7.3034         84
   7.3220         83
   7.3405         69
   7.3591         62
   7.3777         78
   7.3963         72
   7.4148         85
   7.4334         66
   7.4520         86
   7.4706         95
   7.4891         81
   7.5077         97
   7.5263         74
   7.5449        102
   7.5634         61
   7.5820         81
   7.6006         88
   7.6192         87
   7.6377         87
   7.6563         87
   7.6749         91
   7.6935         75
   7.7120        104
   7.7306        100
   7.7492         97
   7.7678         82
   7.7863         80
   7.8049         77
   7.8235         83
   7.8421         93
   7.8606         75
   7.8792         93
   7.8978         91
   7.9164         75
   7.9349         92
   7.9535         92
   7.9721         85
   7.9907        108
   8.0092         86
   8.0278        103
   8.0464         95
   8.0650         84
   8.0835         96
   8.1021         86
   8.1207        106
   8.1393         79
   8.1579         92
   8.1764         87
   8.1950         98
   8.2136        110
   8.2322         86
   8.2507        114
   8.2693         85
   8.2879         77
   8.3065         94
   8.3250        106
   8.3436        102
   8.3622        108
   8.3808         94
   8.3993         96
   8.4179         79
   8.4365         99
   8.4551         85
   8.4736        102
   8.4922         91
   8.5108         86
   8.5294         84
   8.5479         88
   8.5665         93
   8.5851         90
   8.6037         95
   8.6222         97
   8.6408        111
   8.6594        110
   8.6780         98
   8.6965         97
   8.7151        109
   8.7337         92
   8.7523        105
   8.7708         82
   8.7894        104
   8.8080        107
   8.8266        102
   8.8451        101
   8.8637        123
   8.8823         76
   8.9009        105
   8.9195        100
   8.9380         98
   8.9566         98
   8.9752        107
   8.9938         97
   9.0123        107
   9.0309        104
   9.0495         93
   9.0681        108
   9.0866        109
   9.1052         88
   9.1238        103
   9.1424        110
   9.1609        101
   9.1795        113
   9.1981        107
   9.2167        116
   9.2352        119
   9.2538        103
   9.2724        106
   9.2910        111
   9.3095         96
   9.3281        109
   9.3467        116
   9.3653        106
   9.3838        111
   9.4024        105
   9.4210        104
   9.4396        121
   9.4581        115
   9.4767        117
   9.4953        110
   9.5139        115
   9.5324        101
   9.5510        105
   9.5696        116
   9.5882         98
   9.6067        125
   9.6253        118
   9.6439         82
   9.6625        106
   9.6811        114
   9.6996         95
   9.7182        114
   9.7368        107
   9.7554        132
   9.7739        124
   9.7925        135
   9.8111        119
   9.8297        107
   9.8482        114
   9.8668        107
   9.8854        124
   9.9040        111
   9.9225        121
   9.9411        124
   9.9597        119
   9.9783        109
   9.9968        126
  10.0154        120
  10.0340        126
  10.0526        130
  10.0711        115
  10.0897        120
  10.1083        124
  10.1269        112
  10.1454        113
  10.1640        127
  10.1826        125
  10.2012         83
  10.2197        120
  10.2383        107
  10.2569        124
  10.2755        117
  10.2940        143
  10.3126        113
  10.3312         97
  10.3498        126
  10.3683        123
  10.3869        112
  10.4055        122
  10.4241        103
  10.4427        118
  10.4612        107
  10.4798        113
  10.4984        139
  10.5170        115
  10.5355        113
  10.5541        118
  10.5727        129
  10.5913        125
  10.6098        109
  10.6284        107
  10.6470        114
  10.6656        116
  10.6841        143
  10.7027        114
  10.7213        111
  10.7399        119
  10.7584        100
  10.7770        110
  10.7956        122
  10.8142        119
  10.8327        125
  10.8513        115
  10.8699        102
  10.8885        117
  10.9070        113
  10.9256        128
  10.9442        113
  10.9628        125
  10.9813        109
  10.9999        139
  11.0185        116
  11.0371        113
  11.0556        118
  11.0742        109
  11.0928        113
  11.1114        134
  11.1299        112
  11.1485        127
  11.1671        118
  11.1857        102
  11.2043        108
  11.2228        133
  11.2414        114
  11.2600        125
  11.2786        117
  11.2971        116
  11.3157        117
  11.3343        114
  11.3529        119
  11.3714        134
  11.3900        129
  11.4086        112
  11.4272        111
  11.4457        118
  11.4643        116
  11.4829        120
  11.5015        118
  11.5200        116
  11.5386        109
  11.5572         98
  11.5758        130
  11.5943        124
  11.6129         99
  11.6315        111
  11.6501        116
  11.6686        125
  11.6872        121
  11.7058        113
  11.7244        108
  11.7429        119
  11.7615        103
  11.7801         94
  11.7987        127
  11.8172        117
  11.8358        129
  11.8544        103
  11.8730         99
  11.8915        118
  11.9101        115
  11.9287        111
  11.9473        122
  11.9659        120
  11.9844        138
  12.0030        113
  12.0216        119
  12.0402        124
  12.0587        118
  12.0773        109
  12.0959        113
  12.1145        115
  12.1330        105
  12.1516        103
  12.1702         87
  12.1888         98
  12.2073        108
  12.2259        108
  12.2445         99
  12.2631         99
  12.2816        116
  12.3002        106
  12.3188        126
  12.3374        104
  12.3559        108
  12.3745        113
  12.3931        109
  12.4117        123
  12.4302         91
  12.4488         91
  12.4674        112
  12.4860        122
  12.5045        107
  12.5231        102
  12.5417         86
  12.5603        108
  12.5788        106
  12.5974        113
  12.6160        101
  12.6346        108
  12.6531        109
  12.6717        104
  12.6903        120
  12.7089        121
  12.7274        117
  12.7460        109
  12.7646        124
  12.7832        104
  12.8018        109
  12.8203        100
  12.8389        102
  12.8575         79
  12.8761        118
  12.8946         86
  12.9132         96
  12.9318         99
  12.9504         95
  12.9689         95
  12.9875        109
  13.0061         85
  13.0247         87
  13.0432        101
  13.0618         84
  13.0804        110
  13.0990         94
  13.1175        103
  13.1361         99
  13.1547        118
  13.1733        100
  13.1918         94
  13.2104        121
  13.2290         99
  13.2476        109
  13.2661        104
  13.2847         85
  13.3033         92
  13.3219        112
  13.3404         91
  13.3590         94
  13.3776        103
  13.3962        104
  13.4147        103
  13.4333        113
  13.4519         81
  13.4705         89
  13.4890        105
  13.5076         80
  13.5262         78
  13.5448        122
  13.5634        106
  13.5819         98
  13.6005        106
  13.6191        112
  13.6377        104
  13.6562        108
  13.6748        107
  13.6934        101
  13.7120        106
  13.7305         87
  13.7491         93
  13.7677        112
  13.7863        107
  13.8048         94
  13.8234         87
  13.8420         85
  13.8606        108
  13.8791         93
  13.8977         80
  13.9163         95
  13.9349        103
  13.9534         97
  13.9720         84
  13.9906         95
  14.0092         97
  14.0277         89
  14.0463         82
  14.0649        109
  14.0835         87
  14.1020         77
  14.1206         86
  14.1392        105
  14.1578         90
  14.1763        101
  14.1949         84
  14.2135        103
  14.2321        107
  14.2506         80
  14.2692         90
  14.2878         90
  14.3064         78
  14.3250         87
  14.3435         78
  14.3621         82
  14.3807         77
  14.3993         93
  14.4178         74
  14.4364        103
  14.4550         86
  14.4736         80
  14.4921         80
  14.5107         77
  14.5293         84
  14.5479         78
  14.5664         89
  14.5850         86
  14.6036         85
  14.6222         87
  14.6407         83
  14.6593         85
  14.6779         72
  14.6965         66
  14.7150         77
  14.7336         96
  14.7522         83
  14.7708         83
  14.7893         79
  14.8079         78
  14.8265         76
  14.8451         86
  14.8636        109
  14.8822         88
  14.9008         94
  14.9194         91
  14.9379         78
  14.9565        109
  14.9751         88
  14.9937         79
  15.0122         86
  15.0308         81
  15.0494         80
  15.0680         77
  15.0866         78
  15.1051         89
  15.1237         84
  15.1423         98
  15.1609         92
  15.1794         80
  15.1980         77
  15.2166        108
  15.2352         80
  15.2537         90
  15.2723         79
  15.2909         92
  15.3095         85
  15.3280         76
  15.3466         88
  15.3652         89
  15.3838         78
  15.4023         73
  15.4209         69
  15.4395         77
  15.4581         83
  15.4766         90
  15.4952         80
  15.5138         89
  15.5324         83
  15.5509         78
  15.5695         97
  15.5881         75
  15.6067         78
  15.6252        105
  15.6438         74
  15.6624         74
  15.6810         79
  15.6995         79
  15.7181         78
  15.7367         80
  15.7553         87
  15.7738         73
  15.7924         86
  15.8110         83
  15.8296         64
  15.8482         79
  15.8667         69
  15.8853         85
  15.9039         89
  15.9225         92
  15.9410         74
  15.9596         92
  15.9782         84
  15.9968        100
  16.0153         83
  16.0339         63
  16.0525         77
  16.0711         88
  16.0896         68
  16.1082         89
  16.1268         77
  16.1454         90
  16.1639         83
  16.1825         64
  16.2011         84
  16.2197         82
  16.2382         78
  16.2568         82
  16.2754         84
  16.2940         90
  16.3125         89
  16.3311         81
  16.3497         73
  16.3683         97
  16.3868         78
  16.4054         77
  16.4240         87
  16.4426         63
  16.4611         82
  16.4797         62
  16.4983         68
  16.5169         74
  16.5354         77
  16.5540         62
  16.5726         80
  16.5912         77
  16.6097         84
  16.6283         87
  16.6469         72
  16.6655         69
  16.6841         84
  16.7026         80
  16.7212         80
  16.7398         77
  16.7584         82
  16.7769         71
  16.7955         75
  16.8141         83
  16.8327         73
  16.8512         79
  16.8698         86
  16.8884         94
  16.9070         92
  16.9255         71
  16.9441         74
  16.9627         71
  16.9813         73
  16.9998         80
  17.0184         76
  17.0370         68
  17.0556         87
  17.0741         95
  17.0927         93
  17.1113         89
  17.1299         81
  17.1484         91
  17.1670         92
  17.1856         82
  17.2042         79
  17.2227         82
  17.2413         69
  17.2599         76
  17.2785         91
  17.2970         64
  17.3156         86
  17.3342         81
  17.3528         70
  17.3713         70
  17.3899         79
  17.4085         79
  17.4271         64
  17.4457         86
  17.4642         85
  17.4828         86
  17.5014         61
  17.5200         78
  17.5385         87
  17.5571         75
  17.5757         79
  17.5943         84
  17.6128         89
  17.6314         81
  17.6500         68
  17.6686         88
  17.6871         79
  17.7057         75
  17.7243         86
  17.7429         83
  17.7614         69
  17.7800         92
  17.7986         83
  17.8172         75
  17.8357         85
  17.8543         95
  17.8729         83
  17.8915         70
  17.9100         73
  17.9286         80
  17.9472         74
  17.9658         85
  17.9843         87
  18.0029         86
  18.0215         78
  18.0401         91
  18.0586         76
  18.0772         69
  18.0958         88
  18.1144         87
  18.1329         87
  18.1515         77
  18.1701         68
  18.1887         71
  18.2073         65
  18.2258         88
  18.2444         74
  18.2630         71
  18.2816         82
  18.3001         91
  18.3187         87
  18.3373         87
  18.3559         83
  18.3744         84
  18.3930         81
  18.4116         89
  18.4302         90
  18.4487         82
  18.4673         72
  18.4859         93
  18.5045         69
  18.5230         89
  18.5416         72
  18.5602         99
  18.5788         72
  18.5973         81
  18.6159         75
  18.6345         95
  18.6531         74
  18.6716         95
  18.6902         83
  18.7088         84
  18.7274         87
  18.7459         82
  18.7645         85
  18.7831         71
  18.8017         88
  18.8202         81
  18.8388         69
  18.8574         71
  18.8760         95
  18.8945         97
  18.9131         87
  18.9317         87
  18.9503         91
  18.9689         81
  18.9874         73
  19.0060         71
  19.0246         76
  19.0432         82
  19.0617         77
  19.0803         93
  19.0989         93
  19.1175         91
  19.1360         93
  19.1546         83
  19.1732        100
  19.1918         93
  19.2103         66
  19.2289         89
  19.2475         88
  19.2661         87
  19.2846         85
  19.3032         81
  19.3218         87
  19.3404         78
  19.3589         96
  19.3775         75
  19.3961         90
  19.4147         89
  19.4332         77
  19.4518         84
  19.4704         85
  19.4890         90
  19.5075        101
  19.5261         86
  19.5447         95
  19.5633         97
  19.5818         87
  19.6004         78
  19.6190         89
  19.6376         70
  19.6561         80
  19.6747        106
  19.6933         84
  19.7119         78
  19.7305         90
  19.7490         89
  19.7676         82
  19.7862         88
  19.8048         90
  19.8233        103
  19.8419         95
  19.8605         97
  19.8791         77
  19.8976        116
  19.9162         96
  19.9348         82
  19.9534         92
  19.9719         74
  19.9905         80
  20.0091         73
  20.0277         81
  20.0462         88
  20.0648         94
  20.0834         85
  20.1020         80
  20.1205         84
  20.1391         82
  20.1577         92
  20.1763         96
  20.1948        107
  20.2134         83
  20.2320         77
  20.2506        104
  20.2691         91
  20.2877         94
  20.3063         95
  20.3249         85
  20.3434         91
  20.3620         90
  20.3806         83
  20.3992         99
  20.4177         98
  20.4363         63
  20.4549         97
  20.4735         89
