; (content of file Y:\Sam\Apurva-07-20-2022\puck2\ML_20220720_6_SJD_0_LaB6-4min.raw)
_FILEVERSION = 3
_SAMPLE = ML_20220720_6_SJD_0_LaB6-4min
_+SAMPLE = 
_SITE = USA
_USER = Administrator
_GONIOMETER_CODE = 20
; Goniometer : D8 theta/2theta, stage : Unknown
_ATTACHMENTS_CODE = 0
_GONIOMETER_RADIUS = 200.5
_FIXED_DIVSLIT = 0.6
_FIXED_SAMPLESLIT = 0
_SOLLER_SLITS = 2
_FIXED_DETSLIT = 9.55
_MONOCHROMATOR = 0
; Incident beam monochromator : None
_SOLLER_SLITS_2 = N
_THIN_FILM = N
_BETA_FILTER = Y
_FIXED_ANTISLIT = 5.89
_ANALYZER_CODE = 0
; Received beam analyzer : None
_DATEMEASURED = "25-Jul-2022 17:47:01"
_WL_UNIT = A
_WL1 = 1.5406
_WL2 = 1.54439
_WL3 = 1.39222
_WLRATIO = 0.5
_ANODE = Cu
_V4_INF_CREATOR = XRDWizard
_V4_INF_CREATOR_VERSION = V2.9.0.22
_V4_INF_WIZARD_VERSION = V2.9.0.22
_V4_INF_WIZARD_ADDINS = V2.9.0.22
_V4_INF_WIZARD_DOCTYPE = XRD
_V4_INF_OSUSER = McQueenLab
_V4_INF_USER = Administrator
_V4_INF_SITE = USA
_V4_INF_SAMPLEID = ML_20220720_6_SJD_0_LaB6-4min

; Data for range 1
_DRIVE = COUPLED
_STEPTIME = 11.28
_STEPSIZE = 0.0185756
_STEPMODE = C
_START = 5
_THETA = 2.5
_2THETA = 5
_KHI = 0
_PHI = 0
_X = 0
_Y = 0
_Z = 0
_DETECTOR = 5
; Detector type : Unknown
_DETECTORSLIT = unkn
_AUX1 = 0
_AUX2 = 0
_AUX3 = 0
_TIMESTARTED = 14
_TEMP_RATE = -1
_TEMP_DELAY = -1
_KV = 40
_MA = 40
_RANGE_WL = 1.5406
_3DPLANE = 0
_V4_ADDITIONALDETECTOR = 257
_V4_PSD2THETA = 3.365
_V4_PSDCHANNEL1 = 0
_V4_PSDAPERTURE = 12.68
_V4_PSDTYPE = 5
_V4_PSDFIXED = 0
_V4_COUNTERS_MASK = 4096
_V4_DRIVES_MASK = 0
_V4_ENCODERS_MASK = 0
_2THETACOUNTS = 1
; 2THETA  PSD
   5.0000        263
   5.0186        291
   5.0372        261
   5.0557        274
   5.0743        240
   5.0929        235
   5.1115        252
   5.1300        242
   5.1486        249
   5.1672        253
   5.1858        280
   5.2043        266
   5.2229        225
   5.2415        244
   5.2601        257
   5.2786        256
   5.2972        241
   5.3158        229
   5.3344        230
   5.3529        213
   5.3715        225
   5.3901        260
   5.4087        225
   5.4272        240
   5.4458        203
   5.4644        243
   5.4830        248
   5.5015        220
   5.5201        214
   5.5387        234
   5.5573        202
   5.5758        222
   5.5944        220
   5.6130        217
   5.6316        205
   5.6501        209
   5.6687        205
   5.6873        247
   5.7059        213
   5.7244        200
   5.7430        200
   5.7616        215
   5.7802        195
   5.7988        220
   5.8173        194
   5.8359        177
   5.8545        220
   5.8731        205
   5.8916        202
   5.9102        243
   5.9288        232
   5.9474        206
   5.9659        216
   5.9845        187
   6.0031        197
   6.0217        205
   6.0402        187
   6.0588        183
   6.0774        235
   6.0960        199
   6.1145        199
   6.1331        205
   6.1517        183
   6.1703        194
   6.1888        200
   6.2074        192
   6.2260        202
   6.2446        201
   6.2631        206
   6.2817        199
   6.3003        219
   6.3189        180
   6.3374        166
   6.3560        178
   6.3746        212
   6.3932        192
   6.4117        173
   6.4303        174
   6.4489        195
   6.4675        176
   6.4860        172
   6.5046        163
   6.5232        183
   6.5418        206
   6.5604        171
   6.5789        184
   6.5975        176
   6.6161        171
   6.6347        179
   6.6532        181
   6.6718        162
   6.6904        153
   6.7090        176
   6.7275        168
   6.7461        173
   6.7647        156
   6.7833        176
   6.8018        168
   6.8204        178
   6.8390        174
   6.8576        159
   6.8761        183
   6.8947        171
   6.9133        146
   6.9319        150
   6.9504        194
   6.9690        148
   6.9876        151
   7.0062        171
   7.0247        159
   7.0433        164
   7.0619        184
   7.0805        162
   7.0990        171
   7.1176        152
   7.1362        150
   7.1548        201
   7.1733        166
   7.1919        174
   7.2105        132
   7.2291        182
   7.2476        144
   7.2662        151
   7.2848        180
   7.3034        197
   7.3220        156
   7.3405        148
   7.3591        175
   7.3777        188
   7.3963        179
   7.4148        164
   7.4334        166
   7.4520        185
   7.4706        172
   7.4891        204
   7.5077        180
   7.5263        151
   7.5449        187
   7.5634        184
   7.5820        188
   7.6006        174
   7.6192        199
   7.6377        173
   7.6563        207
   7.6749        185
   7.6935        172
   7.7120        175
   7.7306        166
   7.7492        201
   7.7678        155
   7.7863        176
   7.8049        181
   7.8235        160
   7.8421        181
   7.8606        195
   7.8792        186
   7.8978        183
   7.9164        178
   7.9349        191
   7.9535        204
   7.9721        200
   7.9907        189
   8.0092        177
   8.0278        180
   8.0464        167
   8.0650        201
   8.0835        197
   8.1021        173
   8.1207        179
   8.1393        192
   8.1579        181
   8.1764        193
   8.1950        211
   8.2136        185
   8.2322        184
   8.2507        216
   8.2693        193
   8.2879        199
   8.3065        208
   8.3250        201
   8.3436        223
   8.3622        182
   8.3808        173
   8.3993        203
   8.4179        187
   8.4365        221
   8.4551        180
   8.4736        195
   8.4922        211
   8.5108        180
   8.5294        202
   8.5479        213
   8.5665        181
   8.5851        196
   8.6037        212
   8.6222        217
   8.6408        203
   8.6594        194
   8.6780        176
   8.6965        205
   8.7151        190
   8.7337        195
   8.7523        226
   8.7708        197
   8.7894        222
   8.8080        212
   8.8266        190
   8.8451        228
   8.8637        222
   8.8823        190
   8.9009        220
   8.9195        213
   8.9380        223
   8.9566        212
   8.9752        219
   8.9938        221
   9.0123        225
   9.0309        211
   9.0495        199
   9.0681        210
   9.0866        224
   9.1052        193
   9.1238        226
   9.1424        208
   9.1609        223
   9.1795        246
   9.1981        228
   9.2167        239
   9.2352        223
   9.2538        214
   9.2724        196
   9.2910        222
   9.3095        218
   9.3281        202
   9.3467        224
   9.3653        211
   9.3838        219
   9.4024        206
   9.4210        214
   9.4396        208
   9.4581        214
   9.4767        244
   9.4953        229
   9.5139        215
   9.5324        193
   9.5510        248
   9.5696        221
   9.5882        215
   9.6067        238
   9.6253        222
   9.6439        259
   9.6625        226
   9.6811        192
   9.6996        236
   9.7182        215
   9.7368        229
   9.7554        236
   9.7739        253
   9.7925        242
   9.8111        253
   9.8297        222
   9.8482        217
   9.8668        264
   9.8854        244
   9.9040        239
   9.9225        257
   9.9411        249
   9.9597        251
   9.9783        227
   9.9968        227
  10.0154        249
  10.0340        236
  10.0526        220
  10.0711        210
  10.0897        222
  10.1083        220
  10.1269        242
  10.1454        250
  10.1640        229
  10.1826        225
  10.2012        225
  10.2197        242
  10.2383        220
  10.2569        255
  10.2755        243
  10.2940        234
  10.3126        258
  10.3312        212
  10.3498        243
  10.3683        224
  10.3869        252
  10.4055        243
  10.4241        245
  10.4427        230
  10.4612        258
  10.4798        255
  10.4984        223
  10.5170        274
  10.5355        226
  10.5541        245
  10.5727        251
  10.5913        237
  10.6098        281
  10.6284        237
  10.6470        262
  10.6656        245
  10.6841        256
  10.7027        272
  10.7213        223
  10.7399        235
  10.7584        258
  10.7770        218
  10.7956        228
  10.8142        240
  10.8327        253
  10.8513        261
  10.8699        247
  10.8885        239
  10.9070        245
  10.9256        241
  10.9442        218
  10.9628        268
  10.9813        253
  10.9999        230
  11.0185        273
  11.0371        294
  11.0556        235
  11.0742        230
  11.0928        234
  11.1114        243
  11.1299        244
  11.1485        237
  11.1671        243
  11.1857        260
  11.2043        260
  11.2228        255
  11.2414        238
  11.2600        271
  11.2786        230
  11.2971        251
  11.3157        213
  11.3343        262
  11.3529        278
  11.3714        230
  11.3900        231
  11.4086        254
  11.4272        237
  11.4457        197
  11.4643        217
  11.4829        233
  11.5015        223
  11.5200        236
  11.5386        266
  11.5572        237
  11.5758        224
  11.5943        228
  11.6129        234
  11.6315        250
  11.6501        231
  11.6686        235
  11.6872        215
  11.7058        224
  11.7244        216
  11.7429        223
  11.7615        256
  11.7801        217
  11.7987        203
  11.8172        233
  11.8358        211
  11.8544        238
  11.8730        240
  11.8915        228
  11.9101        218
  11.9287        260
  11.9473        262
  11.9659        217
  11.9844        216
  12.0030        209
  12.0216        210
  12.0402        223
  12.0587        221
  12.0773        233
  12.0959        244
  12.1145        232
  12.1330        252
  12.1516        240
  12.1702        253
  12.1888        223
  12.2073        232
  12.2259        216
  12.2445        234
  12.2631        240
  12.2816        242
  12.3002        243
  12.3188        245
  12.3374        206
  12.3559        209
  12.3745        216
  12.3931        229
  12.4117        237
  12.4302        223
  12.4488        231
  12.4674        226
  12.4860        230
  12.5045        228
  12.5231        249
  12.5417        236
  12.5603        215
  12.5788        198
  12.5974        239
  12.6160        206
  12.6346        216
  12.6531        209
  12.6717        239
  12.6903        201
  12.7089        218
  12.7274        236
  12.7460        221
  12.7646        222
  12.7832        219
  12.8018        192
  12.8203        222
  12.8389        219
  12.8575        195
  12.8761        222
  12.8946        216
  12.9132        241
  12.9318        194
  12.9504        209
  12.9689        216
  12.9875        207
  13.0061        203
  13.0247        233
  13.0432        205
  13.0618        200
  13.0804        193
  13.0990        223
  13.1175        211
  13.1361        208
  13.1547        213
  13.1733        167
  13.1918        225
  13.2104        211
  13.2290        183
  13.2476        188
  13.2661        214
  13.2847        217
  13.3033        219
  13.3219        206
  13.3404        201
  13.3590        178
  13.3776        199
  13.3962        201
  13.4147        225
  13.4333        203
  13.4519        179
  13.4705        204
  13.4890        188
  13.5076        208
  13.5262        184
  13.5448        190
  13.5634        185
  13.5819        191
  13.6005        195
  13.6191        233
  13.6377        196
  13.6562        199
  13.6748        212
  13.6934        205
  13.7120        183
  13.7305        188
  13.7491        200
  13.7677        193
  13.7863        213
  13.8048        183
  13.8234        197
  13.8420        183
  13.8606        200
  13.8791        197
  13.8977        189
  13.9163        184
  13.9349        197
  13.9534        181
  13.9720        190
  13.9906        205
  14.0092        183
  14.0277        201
  14.0463        189
  14.0649        179
  14.0835        177
  14.1020        211
  14.1206        183
  14.1392        143
  14.1578        168
  14.1763        204
  14.1949        192
  14.2135        177
  14.2321        178
  14.2506        196
  14.2692        161
  14.2878        187
  14.3064        163
  14.3250        187
  14.3435        171
  14.3621        162
  14.3807        178
  14.3993        185
  14.4178        200
  14.4364        155
  14.4550        205
  14.4736        208
  14.4921        202
  14.5107        188
  14.5293        165
  14.5479        175
  14.5664        177
  14.5850        195
  14.6036        195
  14.6222        168
  14.6407        174
  14.6593        166
  14.6779        168
  14.6965        184
  14.7150        151
  14.7336        189
  14.7522        170
  14.7708        167
  14.7893        143
  14.8079        136
  14.8265        148
  14.8451        188
  14.8636        191
  14.8822        178
  14.9008        166
  14.9194        162
  14.9379        164
  14.9565        181
  14.9751        180
  14.9937        170
  15.0122        160
  15.0308        171
  15.0494        164
  15.0680        160
  15.0866        177
  15.1051        179
  15.1237        163
  15.1423        148
  15.1609        178
  15.1794        148
  15.1980        156
  15.2166        181
  15.2352        163
  15.2537        165
  15.2723        176
  15.2909        158
  15.3095        173
  15.3280        180
  15.3466        160
  15.3652        206
  15.3838        204
  15.4023        170
  15.4209        164
  15.4395        149
  15.4581        148
  15.4766        180
  15.4952        166
  15.5138        179
  15.5324        182
  15.5509        174
  15.5695        169
  15.5881        173
  15.6067        169
  15.6252        186
  15.6438        151
  15.6624        151
  15.6810        151
  15.6995        154
  15.7181        160
  15.7367        151
  15.7553        171
  15.7738        165
  15.7924        173
  15.8110        181
  15.8296        170
  15.8482        173
  15.8667        173
  15.8853        156
  15.9039        175
  15.9225        161
  15.9410        171
  15.9596        170
  15.9782        154
  15.9968        152
  16.0153        161
  16.0339        159
  16.0525        168
  16.0711        156
  16.0896        155
  16.1082        163
  16.1268        174
  16.1454        171
  16.1639        180
  16.1825        165
  16.2011        157
  16.2197        160
  16.2382        179
  16.2568        180
  16.2754        155
  16.2940        184
  16.3125        158
  16.3311        178
  16.3497        181
  16.3683        150
  16.3868        182
  16.4054        149
  16.4240        154
  16.4426        160
  16.4611        140
  16.4797        149
  16.4983        173
  16.5169        181
  16.5354        151
  16.5540        165
  16.5726        156
  16.5912        159
  16.6097        160
  16.6283        162
  16.6469        166
  16.6655        170
  16.6841        168
  16.7026        189
  16.7212        160
  16.7398        172
  16.7584        173
  16.7769        188
  16.7955        180
  16.8141        171
  16.8327        168
  16.8512        151
  16.8698        172
  16.8884        150
  16.9070        149
  16.9255        153
  16.9441        191
  16.9627        166
  16.9813        166
  16.9998        156
  17.0184        180
  17.0370        164
  17.0556        158
  17.0741        158
  17.0927        177
  17.1113        169
  17.1299        146
  17.1484        155
  17.1670        165
  17.1856        152
  17.2042        170
  17.2227        166
  17.2413        191
  17.2599        187
  17.2785        169
  17.2970        159
  17.3156        153
  17.3342        155
  17.3528        135
  17.3713        180
  17.3899        165
  17.4085        140
  17.4271        158
  17.4457        173
  17.4642        162
  17.4828        162
  17.5014        168
  17.5200        184
  17.5385        172
  17.5571        147
  17.5757        151
  17.5943        146
  17.6128        184
  17.6314        172
  17.6500        168
  17.6686        177
  17.6871        135
  17.7057        164
  17.7243        154
  17.7429        154
  17.7614        162
  17.7800        181
  17.7986        194
  17.8172        186
  17.8357        153
  17.8543        174
  17.8729        140
  17.8915        179
  17.9100        159
  17.9286        147
  17.9472        163
  17.9658        164
  17.9843        168
  18.0029        192
  18.0215        181
  18.0401        178
  18.0586        151
  18.0772        171
  18.0958        195
  18.1144        171
  18.1329        166
  18.1515        144
  18.1701        155
  18.1887        165
  18.2073        148
  18.2258        167
  18.2444        189
  18.2630        153
  18.2816        159
  18.3001        170
  18.3187        155
  18.3373        164
  18.3559        149
  18.3744        162
  18.3930        160
  18.4116        172
  18.4302        171
  18.4487        144
  18.4673        164
  18.4859        174
  18.5045        178
  18.5230        186
  18.5416        173
  18.5602        155
  18.5788        154
  18.5973        179
  18.6159        167
  18.6345        170
  18.6531        183
  18.6716        189
  18.6902        176
  18.7088        187
  18.7274        155
  18.7459        184
  18.7645        173
  18.7831        168
  18.8017        178
  18.8202        179
  18.8388        159
  18.8574        171
  18.8760        172
  18.8945        186
  18.9131        175
  18.9317        170
  18.9503        164
  18.9689        171
  18.9874        152
  19.0060        163
  19.0246        175
  19.0432        164
  19.0617        166
  19.0803        166
  19.0989        190
  19.1175        167
  19.1360        175
  19.1546        174
  19.1732        192
  19.1918        184
  19.2103        145
  19.2289        181
  19.2475        200
  19.2661        147
  19.2846        196
  19.3032        174
  19.3218        180
  19.3404        181
  19.3589        190
  19.3775        175
  19.3961        179
  19.4147        180
  19.4332        184
  19.4518        187
  19.4704        175
  19.4890        169
  19.5075        190
  19.5261        173
  19.5447        187
  19.5633        182
  19.5818        172
  19.6004        174
  19.6190        194
  19.6376        189
  19.6561        181
  19.6747        157
  19.6933        162
  19.7119        181
  19.7305        159
  19.7490        155
  19.7676        178
  19.7862        193
  19.8048        173
  19.8233        172
  19.8419        158
  19.8605        182
  19.8791        172
  19.8976        191
  19.9162        157
  19.9348        183
  19.9534        194
  19.9719        165
  19.9905        191
  20.0091        185
  20.0277        168
  20.0462        176
  20.0648        191
  20.0834        182
  20.1020        184
  20.1205        202
  20.1391        185
  20.1577        165
  20.1763        193
  20.1948        168
  20.2134        176
  20.2320        174
  20.2506        178
  20.2691        175
  20.2877        180
  20.3063        220
  20.3249        189
  20.3434        173
  20.3620        197
  20.3806        186
  20.3992        172
  20.4177        166
  20.4363        186
  20.4549        186
  20.4735        176
