; (content of file Y:\Sam\Apurva-07-20-2022\puck4\ML_20220718_5_SJD_0_LaB6-1min.raw)
_FILEVERSION = 3
_SAMPLE = ML_20220718_5_SJD_0_LaB6-1mi
_+SAMPLE = 
_SITE = USA
_USER = Administrator
_GONIOMETER_CODE = 20
; Goniometer : D8 theta/2theta, stage : Unknown
_ATTACHMENTS_CODE = 0
_GONIOMETER_RADIUS = 200.5
_FIXED_DIVSLIT = 0.6
_FIXED_SAMPLESLIT = 0
_SOLLER_SLITS = 2
_FIXED_DETSLIT = 9.55
_MONOCHROMATOR = 0
; Incident beam monochromator : None
_SOLLER_SLITS_2 = N
_THIN_FILM = N
_BETA_FILTER = Y
_FIXED_ANTISLIT = 5.89
_ANALYZER_CODE = 0
; Received beam analyzer : None
_DATEMEASURED = "21-Jul-2022 03:08:03"
_WL_UNIT = A
_WL1 = 1.5406
_WL2 = 1.54439
_WL3 = 1.39222
_WLRATIO = 0.5
_ANODE = Cu
_V4_INF_CREATOR = XRDWizard
_V4_INF_CREATOR_VERSION = V2.9.0.22
_V4_INF_WIZARD_VERSION = V2.9.0.22
_V4_INF_WIZARD_ADDINS = V2.9.0.22
_V4_INF_WIZARD_DOCTYPE = XRD
_V4_INF_OSUSER = McQueenLab
_V4_INF_USER = Administrator
_V4_INF_SITE = USA
_V4_INF_SAMPLEID = ML_20220718_5_SJD_0_LaB6-1mi

; Data for range 1
_DRIVE = COUPLED
_STEPTIME = 4.23
_STEPSIZE = 0.0185756
_STEPMODE = C
_START = 5
_THETA = 2.5
_2THETA = 5
_KHI = 0
_PHI = 0
_X = 0
_Y = 0
_Z = 0
_DETECTOR = 5
; Detector type : Unknown
_DETECTORSLIT = unkn
_AUX1 = 0
_AUX2 = 0
_AUX3 = 0
_TIMESTARTED = 15
_TEMP_RATE = -1
_TEMP_DELAY = -1
_KV = 40
_MA = 40
_RANGE_WL = 1.5406
_3DPLANE = 0
_V4_ADDITIONALDETECTOR = 257
_V4_PSD2THETA = 3.3736
_V4_PSDCHANNEL1 = 0
_V4_PSDAPERTURE = 12.68
_V4_PSDTYPE = 5
_V4_PSDFIXED = 0
_V4_COUNTERS_MASK = 4096
_V4_DRIVES_MASK = 0
_V4_ENCODERS_MASK = 0
_2THETACOUNTS = 1
; 2THETA  PSD
   5.0000         88
   5.0186        104
   5.0372        104
   5.0557         89
   5.0743         89
   5.0929         84
   5.1115         84
   5.1300         83
   5.1486         88
   5.1672         83
   5.1858         99
   5.2043         81
   5.2229        101
   5.2415        102
   5.2601         87
   5.2786         77
   5.2972         75
   5.3158         95
   5.3344         76
   5.3529        109
   5.3715         77
   5.3901         75
   5.4087         74
   5.4272         93
   5.4458         97
   5.4644         93
   5.4830         73
   5.5015         80
   5.5201         71
   5.5387         82
   5.5573         79
   5.5758         70
   5.5944         83
   5.6130         77
   5.6316         69
   5.6501         68
   5.6687         88
   5.6873         75
   5.7059         80
   5.7244         82
   5.7430         80
   5.7616         97
   5.7802         57
   5.7988         74
   5.8173         75
   5.8359         64
   5.8545         77
   5.8731         72
   5.8916         75
   5.9102         69
   5.9288         75
   5.9474         71
   5.9659         60
   5.9845         72
   6.0031         75
   6.0217         63
   6.0402         69
   6.0588         83
   6.0774         68
   6.0960         63
   6.1145         60
   6.1331         46
   6.1517         70
   6.1703         79
   6.1888         64
   6.2074         66
   6.2260         67
   6.2446         62
   6.2631         75
   6.2817         63
   6.3003         68
   6.3189         75
   6.3374         50
   6.3560         75
   6.3746         73
   6.3932         75
   6.4117         75
   6.4303         79
   6.4489         69
   6.4675         60
   6.4860         62
   6.5046         85
   6.5232         50
   6.5418         65
   6.5604         62
   6.5789         62
   6.5975         68
   6.6161         57
   6.6347         61
   6.6532         49
   6.6718         55
   6.6904         54
   6.7090         62
   6.7275         79
   6.7461         69
   6.7647         69
   6.7833         65
   6.8018         58
   6.8204         77
   6.8390         57
   6.8576         57
   6.8761         57
   6.8947         67
   6.9133         62
   6.9319         59
   6.9504         71
   6.9690         69
   6.9876         85
   7.0062         56
   7.0247         72
   7.0433         70
   7.0619         59
   7.0805         56
   7.0990         43
   7.1176         58
   7.1362         58
   7.1548         60
   7.1733         49
   7.1919         53
   7.2105         43
   7.2291         48
   7.2476         57
   7.2662         52
   7.2848         58
   7.3034         59
   7.3220         67
   7.3405         56
   7.3591         45
   7.3777         57
   7.3963         53
   7.4148         62
   7.4334         64
   7.4520         68
   7.4706         57
   7.4891         69
   7.5077         52
   7.5263         69
   7.5449         52
   7.5634         56
   7.5820         64
   7.6006         69
   7.6192         61
   7.6377         60
   7.6563         66
   7.6749         59
   7.6935         70
   7.7120         65
   7.7306         65
   7.7492         53
   7.7678         66
   7.7863         65
   7.8049         58
   7.8235         62
   7.8421         76
   7.8606         67
   7.8792         59
   7.8978         39
   7.9164         60
   7.9349         67
   7.9535         69
   7.9721         64
   7.9907         67
   8.0092         66
   8.0278         73
   8.0464         79
   8.0650         77
   8.0835         73
   8.1021         80
   8.1207         49
   8.1393         70
   8.1579         69
   8.1764         63
   8.1950         74
   8.2136         60
   8.2322         67
   8.2507         61
   8.2693         67
   8.2879         68
   8.3065         64
   8.3250         67
   8.3436         70
   8.3622         82
   8.3808         82
   8.3993         64
   8.4179         73
   8.4365         57
   8.4551         69
   8.4736         84
   8.4922         72
   8.5108         66
   8.5294         67
   8.5479         83
   8.5665         66
   8.5851         65
   8.6037         76
   8.6222         81
   8.6408         64
   8.6594         59
   8.6780         64
   8.6965         81
   8.7151         65
   8.7337         69
   8.7523         71
   8.7708         87
   8.7894         77
   8.8080         71
   8.8266         77
   8.8451         79
   8.8637         66
   8.8823         80
   8.9009         74
   8.9195         81
   8.9380         68
   8.9566         72
   8.9752         74
   8.9938         75
   9.0123         60
   9.0309         75
   9.0495         88
   9.0681         52
   9.0866         81
   9.1052         75
   9.1238         89
   9.1424         79
   9.1609         86
   9.1795         73
   9.1981         79
   9.2167         70
   9.2352         85
   9.2538         74
   9.2724         83
   9.2910         65
   9.3095         72
   9.3281         86
   9.3467         79
   9.3653         75
   9.3838         75
   9.4024         76
   9.4210         64
   9.4396         77
   9.4581         64
   9.4767         84
   9.4953         73
   9.5139         76
   9.5324         78
   9.5510         81
   9.5696         70
   9.5882         82
   9.6067         85
   9.6253         93
   9.6439         97
   9.6625         70
   9.6811         83
   9.6996         75
   9.7182         79
   9.7368         96
   9.7554         90
   9.7739         75
   9.7925         70
   9.8111         88
   9.8297         85
   9.8482         95
   9.8668         90
   9.8854         84
   9.9040        111
   9.9225        110
   9.9411         69
   9.9597         77
   9.9783         69
   9.9968         88
  10.0154         76
  10.0340         81
  10.0526         86
  10.0711         88
  10.0897         81
  10.1083         92
  10.1269         87
  10.1454         95
  10.1640         81
  10.1826         73
  10.2012         83
  10.2197         98
  10.2383         85
  10.2569         99
  10.2755         86
  10.2940         80
  10.3126         87
  10.3312         83
  10.3498         70
  10.3683        108
  10.3869        100
  10.4055         91
  10.4241         90
  10.4427         80
  10.4612         85
  10.4798         82
  10.4984         79
  10.5170         92
  10.5355         60
  10.5541         74
  10.5727         91
  10.5913         74
  10.6098         85
  10.6284        105
  10.6470         99
  10.6656         73
  10.6841         96
  10.7027         78
  10.7213         98
  10.7399         78
  10.7584         89
  10.7770         78
  10.7956         78
  10.8142         99
  10.8327         91
  10.8513         88
  10.8699         73
  10.8885         84
  10.9070         78
  10.9256         87
  10.9442         90
  10.9628         87
  10.9813         80
  10.9999         92
  11.0185         85
  11.0371         64
  11.0556         94
  11.0742         79
  11.0928         82
  11.1114         98
  11.1299         81
  11.1485         78
  11.1671         74
  11.1857         66
  11.2043         82
  11.2228         85
  11.2414         89
  11.2600         85
  11.2786         73
  11.2971         86
  11.3157         83
  11.3343         77
  11.3529         70
  11.3714         84
  11.3900         74
  11.4086         84
  11.4272         73
  11.4457         96
  11.4643         77
  11.4829         76
  11.5015         85
  11.5200         63
  11.5386         92
  11.5572         77
  11.5758         88
  11.5943         77
  11.6129         93
  11.6315         88
  11.6501         87
  11.6686         92
  11.6872         76
  11.7058         92
  11.7244         79
  11.7429         81
  11.7615         77
  11.7801         89
  11.7987         88
  11.8172         74
  11.8358         74
  11.8544         81
  11.8730         96
  11.8915         91
  11.9101         82
  11.9287         82
  11.9473         85
  11.9659         94
  11.9844         76
  12.0030         77
  12.0216         87
  12.0402         79
  12.0587         83
  12.0773         74
  12.0959         68
  12.1145         89
  12.1330         76
  12.1516         79
  12.1702         72
  12.1888         63
  12.2073         79
  12.2259         65
  12.2445         73
  12.2631         81
  12.2816         70
  12.3002         94
  12.3188         78
  12.3374         82
  12.3559         69
  12.3745         76
  12.3931         79
  12.4117         74
  12.4302         72
  12.4488         73
  12.4674         74
  12.4860         76
  12.5045         72
  12.5231         58
  12.5417         62
  12.5603         91
  12.5788         77
  12.5974         59
  12.6160         80
  12.6346         62
  12.6531         79
  12.6717         80
  12.6903         81
  12.7089         75
  12.7274         62
  12.7460         90
  12.7646         66
  12.7832         76
  12.8018         71
  12.8203         79
  12.8389         78
  12.8575         89
  12.8761         61
  12.8946         82
  12.9132         75
  12.9318         81
  12.9504         75
  12.9689         80
  12.9875         72
  13.0061         83
  13.0247         66
  13.0432         73
  13.0618         74
  13.0804         70
  13.0990         67
  13.1175         83
  13.1361         65
  13.1547         88
  13.1733         74
  13.1918         79
  13.2104         72
  13.2290         58
  13.2476         57
  13.2661         76
  13.2847         78
  13.3033         58
  13.3219         65
  13.3404         80
  13.3590         64
  13.3776         69
  13.3962         68
  13.4147         80
  13.4333         73
  13.4519         69
  13.4705         56
  13.4890         64
  13.5076         79
  13.5262         59
  13.5448         65
  13.5634         74
  13.5819         73
  13.6005         58
  13.6191         60
  13.6377         78
  13.6562         73
  13.6748         79
  13.6934         70
  13.7120         70
  13.7305         72
  13.7491         76
  13.7677         69
  13.7863         81
  13.8048         65
  13.8234         79
  13.8420         65
  13.8606         56
  13.8791         72
  13.8977         81
  13.9163         57
  13.9349         63
  13.9534         59
  13.9720         76
  13.9906         60
  14.0092         75
  14.0277         66
  14.0463         77
  14.0649         71
  14.0835         58
  14.1020         69
  14.1206         66
  14.1392         60
  14.1578         70
  14.1763         63
  14.1949         71
  14.2135         59
  14.2321         66
  14.2506         58
  14.2692         75
  14.2878         61
  14.3064         66
  14.3250         52
  14.3435         65
  14.3621         52
  14.3807         66
  14.3993         65
  14.4178         71
  14.4364         77
  14.4550         75
  14.4736         63
  14.4921         63
  14.5107         53
  14.5293         59
  14.5479         47
  14.5664         70
  14.5850         69
  14.6036         56
  14.6222         54
  14.6407         62
  14.6593         56
  14.6779         60
  14.6965         70
  14.7150         61
  14.7336         65
  14.7522         62
  14.7708         61
  14.7893         51
  14.8079         52
  14.8265         51
  14.8451         68
  14.8636         59
  14.8822         62
  14.9008         50
  14.9194         64
  14.9379         72
  14.9565         86
  14.9751         63
  14.9937         55
  15.0122         74
  15.0308         59
  15.0494         47
  15.0680         56
  15.0866         60
  15.1051         62
  15.1237         60
  15.1423         67
  15.1609         55
  15.1794         69
  15.1980         51
  15.2166         65
  15.2352         43
  15.2537         68
  15.2723         61
  15.2909         66
  15.3095         60
  15.3280         62
  15.3466         48
  15.3652         49
  15.3838         53
  15.4023         65
  15.4209         64
  15.4395         58
  15.4581         59
  15.4766         51
  15.4952         64
  15.5138         50
  15.5324         66
  15.5509         66
  15.5695         52
  15.5881         51
  15.6067         72
  15.6252         59
  15.6438         65
  15.6624         68
  15.6810         79
  15.6995         58
  15.7181         46
  15.7367         70
  15.7553         58
  15.7738         62
  15.7924         56
  15.8110         47
  15.8296         54
  15.8482         58
  15.8667         70
  15.8853         54
  15.9039         44
  15.9225         56
  15.9410         61
  15.9596         65
  15.9782         66
  15.9968         58
  16.0153         51
  16.0339         61
  16.0525         61
  16.0711         61
  16.0896         64
  16.1082         66
  16.1268         49
  16.1454         68
  16.1639         69
  16.1825         67
  16.2011         72
  16.2197         55
  16.2382         63
  16.2568         79
  16.2754         52
  16.2940         68
  16.3125         71
  16.3311         62
  16.3497         54
  16.3683         73
  16.3868         65
  16.4054         61
  16.4240         49
  16.4426         63
  16.4611         61
  16.4797         73
  16.4983         60
  16.5169         58
  16.5354         41
  16.5540         46
  16.5726         56
  16.5912         64
  16.6097         50
  16.6283         49
  16.6469         54
  16.6655         58
  16.6841         49
  16.7026         59
  16.7212         53
  16.7398         56
  16.7584         58
  16.7769         59
  16.7955         69
  16.8141         63
  16.8327         61
  16.8512         58
  16.8698         53
  16.8884         67
  16.9070         63
  16.9255         61
  16.9441         48
  16.9627         60
  16.9813         56
  16.9998         60
  17.0184         62
  17.0370         46
  17.0556         51
  17.0741         70
  17.0927         73
  17.1113         69
  17.1299         52
  17.1484         72
  17.1670         67
  17.1856         58
  17.2042         60
  17.2227         55
  17.2413         73
  17.2599         66
  17.2785         60
  17.2970         56
  17.3156         54
  17.3342         55
  17.3528         54
  17.3713         61
  17.3899         64
  17.4085         53
  17.4271         58
  17.4457         54
  17.4642         56
  17.4828         66
  17.5014         68
  17.5200         65
  17.5385         52
  17.5571         55
  17.5757         55
  17.5943         55
  17.6128         57
  17.6314         60
  17.6500         64
  17.6686         53
  17.6871         45
  17.7057         54
  17.7243         53
  17.7429         60
  17.7614         71
  17.7800         43
  17.7986         44
  17.8172         59
  17.8357         48
  17.8543         59
  17.8729         57
  17.8915         71
  17.9100         71
  17.9286         52
  17.9472         53
  17.9658         62
  17.9843         57
  18.0029         57
  18.0215         52
  18.0401         52
  18.0586         51
  18.0772         62
  18.0958         58
  18.1144         64
  18.1329         48
  18.1515         61
  18.1701         61
  18.1887         57
  18.2073         60
  18.2258         59
  18.2444         51
  18.2630         61
  18.2816         66
  18.3001         60
  18.3187         49
  18.3373         59
  18.3559         63
  18.3744         52
  18.3930         48
  18.4116         56
  18.4302         69
  18.4487         68
  18.4673         61
  18.4859         72
  18.5045         58
  18.5230         72
  18.5416         63
  18.5602         57
  18.5788         69
  18.5973         57
  18.6159         73
  18.6345         48
  18.6531         60
  18.6716         55
  18.6902         61
  18.7088         73
  18.7274         57
  18.7459         55
  18.7645         68
  18.7831         67
  18.8017         69
  18.8202         48
  18.8388         80
  18.8574         53
  18.8760         52
  18.8945         70
  18.9131         77
  18.9317         70
  18.9503         62
  18.9689         68
  18.9874         61
  19.0060         60
  19.0246         64
  19.0432         52
  19.0617         71
  19.0803         57
  19.0989         63
  19.1175         65
  19.1360         67
  19.1546         62
  19.1732         67
  19.1918         68
  19.2103         59
  19.2289         76
  19.2475         70
  19.2661         60
  19.2846         52
  19.3032         66
  19.3218         67
  19.3404         59
  19.3589         54
  19.3775         67
  19.3961         77
  19.4147         56
  19.4332         60
  19.4518         49
  19.4704         72
  19.4890         73
  19.5075         77
  19.5261         58
  19.5447         57
  19.5633         61
  19.5818         80
  19.6004         66
  19.6190         61
  19.6376         67
  19.6561         73
  19.6747         71
  19.6933         75
  19.7119         71
  19.7305         57
  19.7490         58
  19.7676         68
  19.7862         70
  19.8048         58
  19.8233         61
  19.8419         60
  19.8605         56
  19.8791         59
  19.8976         55
  19.9162         89
  19.9348         73
  19.9534         59
  19.9719         55
  19.9905         64
  20.0091         53
  20.0277         73
  20.0462         55
  20.0648         57
  20.0834         79
  20.1020         75
  20.1205         63
  20.1391         70
  20.1577         68
  20.1763         53
  20.1948         73
  20.2134         57
  20.2320         52
  20.2506         68
  20.2691         72
  20.2877         62
  20.3063         56
  20.3249         59
  20.3434         63
  20.3620         59
  20.3806         62
  20.3992         62
  20.4177         62
  20.4363         62
  20.4549         78
  20.4735         79
