; (content of file Y:\Sam\Apurva-07-20-2022\puck4\ML_20220718_14_SJD_0_LaB6-2min.raw)
_FILEVERSION = 3
_SAMPLE = ML_20220718_14_SJD_0_LaB6-2min
_+SAMPLE = 
_SITE = USA
_USER = Administrator
_GONIOMETER_CODE = 20
; Goniometer : D8 theta/2theta, stage : Unknown
_ATTACHMENTS_CODE = 0
_GONIOMETER_RADIUS = 200.5
_FIXED_DIVSLIT = 0.6
_FIXED_SAMPLESLIT = 0
_SOLLER_SLITS = 2
_FIXED_DETSLIT = 9.55
_MONOCHROMATOR = 0
; Incident beam monochromator : None
_SOLLER_SLITS_2 = N
_THIN_FILM = N
_BETA_FILTER = Y
_FIXED_ANTISLIT = 5.89
_ANALYZER_CODE = 0
; Received beam analyzer : None
_DATEMEASURED = "26-Jul-2022 09:51:52"
_WL_UNIT = A
_WL1 = 1.5406
_WL2 = 1.54439
_WL3 = 1.39222
_WLRATIO = 0.5
_ANODE = Cu
_V4_INF_CREATOR = XRDWizard
_V4_INF_CREATOR_VERSION = V2.9.0.22
_V4_INF_WIZARD_VERSION = V2.9.0.22
_V4_INF_WIZARD_ADDINS = V2.9.0.22
_V4_INF_WIZARD_DOCTYPE = XRD
_V4_INF_OSUSER = McQueenLab
_V4_INF_USER = Administrator
_V4_INF_SITE = USA
_V4_INF_SAMPLEID = ML_20220718_14_SJD_0_LaB6-2min

; Data for range 1
_DRIVE = COUPLED
_STEPTIME = 5.64
_STEPSIZE = 0.0185756
_STEPMODE = C
_START = 5
_THETA = 2.5
_2THETA = 5
_KHI = 0
_PHI = 0
_X = 0
_Y = 0
_Z = 0
_DETECTOR = 5
; Detector type : Unknown
_DETECTORSLIT = unkn
_AUX1 = 0
_AUX2 = 0
_AUX3 = 0
_TIMESTARTED = 15
_TEMP_RATE = -1
_TEMP_DELAY = -1
_KV = 40
_MA = 40
_RANGE_WL = 1.5406
_3DPLANE = 0
_V4_ADDITIONALDETECTOR = 257
_V4_PSD2THETA = 3.371
_V4_PSDCHANNEL1 = 0
_V4_PSDAPERTURE = 12.68
_V4_PSDTYPE = 5
_V4_PSDFIXED = 0
_V4_COUNTERS_MASK = 4096
_V4_DRIVES_MASK = 0
_V4_ENCODERS_MASK = 0
_2THETACOUNTS = 1
; 2THETA  PSD
   5.0000        130
   5.0186        134
   5.0372        141
   5.0557        136
   5.0743        125
   5.0929        119
   5.1115        128
   5.1300        127
   5.1486        131
   5.1672        126
   5.1858        119
   5.2043        111
   5.2229        124
   5.2415        105
   5.2601        127
   5.2786        105
   5.2972        127
   5.3158        103
   5.3344         95
   5.3529        128
   5.3715        130
   5.3901        108
   5.4087        118
   5.4272        112
   5.4458        120
   5.4644        133
   5.4830        102
   5.5015        123
   5.5201        110
   5.5387        127
   5.5573        118
   5.5758        124
   5.5944        118
   5.6130        111
   5.6316        106
   5.6501        117
   5.6687        112
   5.6873        112
   5.7059        103
   5.7244        116
   5.7430         92
   5.7616         90
   5.7802        103
   5.7988        117
   5.8173        118
   5.8359         85
   5.8545         91
   5.8731         95
   5.8916         75
   5.9102         98
   5.9288         97
   5.9474         77
   5.9659         97
   5.9845        109
   6.0031         98
   6.0217        100
   6.0402         99
   6.0588         87
   6.0774        107
   6.0960         85
   6.1145        111
   6.1331        107
   6.1517         97
   6.1703         76
   6.1888         98
   6.2074         88
   6.2260         99
   6.2446         93
   6.2631         83
   6.2817         94
   6.3003         96
   6.3189         88
   6.3374         85
   6.3560         95
   6.3746         90
   6.3932         81
   6.4117         93
   6.4303         83
   6.4489         95
   6.4675         95
   6.4860         78
   6.5046         88
   6.5232         79
   6.5418         85
   6.5604         86
   6.5789        105
   6.5975         80
   6.6161        101
   6.6347         79
   6.6532        104
   6.6718         98
   6.6904         91
   6.7090         57
   6.7275         73
   6.7461         85
   6.7647         85
   6.7833         79
   6.8018         98
   6.8204         81
   6.8390         81
   6.8576         90
   6.8761         62
   6.8947         76
   6.9133         70
   6.9319         78
   6.9504         74
   6.9690         75
   6.9876         78
   7.0062         91
   7.0247         76
   7.0433         86
   7.0619         68
   7.0805         90
   7.0990         86
   7.1176         81
   7.1362         95
   7.1548         66
   7.1733         88
   7.1919         82
   7.2105         85
   7.2291         69
   7.2476         66
   7.2662         92
   7.2848         83
   7.3034         84
   7.3220         88
   7.3405         91
   7.3591         68
   7.3777         87
   7.3963         88
   7.4148         83
   7.4334         73
   7.4520         71
   7.4706         72
   7.4891         79
   7.5077         88
   7.5263         97
   7.5449        100
   7.5634         82
   7.5820         90
   7.6006        103
   7.6192         95
   7.6377         94
   7.6563         78
   7.6749         74
   7.6935         73
   7.7120         76
   7.7306         88
   7.7492         90
   7.7678         85
   7.7863         97
   7.8049         81
   7.8235         76
   7.8421         79
   7.8606         94
   7.8792         85
   7.8978         80
   7.9164         81
   7.9349         90
   7.9535         79
   7.9721         81
   7.9907         97
   8.0092         90
   8.0278         86
   8.0464         90
   8.0650         87
   8.0835         89
   8.1021         97
   8.1207         91
   8.1393         82
   8.1579         78
   8.1764        102
   8.1950         83
   8.2136         80
   8.2322         91
   8.2507        107
   8.2693        100
   8.2879         95
   8.3065         85
   8.3250        105
   8.3436         88
   8.3622        104
   8.3808         88
   8.3993         97
   8.4179        104
   8.4365         84
   8.4551         93
   8.4736        116
   8.4922        103
   8.5108        106
   8.5294         90
   8.5479        121
   8.5665         93
   8.5851        103
   8.6037        114
   8.6222         99
   8.6408         92
   8.6594        110
   8.6780        108
   8.6965         90
   8.7151         93
   8.7337        112
   8.7523         95
   8.7708        106
   8.7894        112
   8.8080        100
   8.8266        100
   8.8451         82
   8.8637         99
   8.8823         98
   8.9009        101
   8.9195        108
   8.9380         83
   8.9566         94
   8.9752        101
   8.9938        113
   9.0123         92
   9.0309        103
   9.0495        105
   9.0681        100
   9.0866        118
   9.1052         94
   9.1238        112
   9.1424        100
   9.1609        102
   9.1795        116
   9.1981        118
   9.2167         98
   9.2352        110
   9.2538        102
   9.2724        125
   9.2910        104
   9.3095        122
   9.3281        125
   9.3467        122
   9.3653        101
   9.3838        115
   9.4024        120
   9.4210         97
   9.4396        102
   9.4581         98
   9.4767         99
   9.4953        123
   9.5139        105
   9.5324        114
   9.5510        106
   9.5696         92
   9.5882        110
   9.6067        119
   9.6253        126
   9.6439        110
   9.6625         95
   9.6811        126
   9.6996         92
   9.7182        113
   9.7368        122
   9.7554        121
   9.7739        109
   9.7925        130
   9.8111        116
   9.8297        105
   9.8482        124
   9.8668        121
   9.8854        111
   9.9040        110
   9.9225        125
   9.9411        128
   9.9597        109
   9.9783        115
   9.9968        142
  10.0154        110
  10.0340        133
  10.0526        119
  10.0711        135
  10.0897        110
  10.1083        110
  10.1269        128
  10.1454        124
  10.1640        130
  10.1826        111
  10.2012        131
  10.2197        113
  10.2383        109
  10.2569        108
  10.2755        115
  10.2940        116
  10.3126         98
  10.3312        118
  10.3498        114
  10.3683        117
  10.3869        112
  10.4055        101
  10.4241        147
  10.4427        113
  10.4612        124
  10.4798        141
  10.4984        113
  10.5170        123
  10.5355         94
  10.5541        112
  10.5727        109
  10.5913        116
  10.6098        117
  10.6284        114
  10.6470        139
  10.6656        127
  10.6841        121
  10.7027        128
  10.7213         95
  10.7399        109
  10.7584        126
  10.7770        123
  10.7956        109
  10.8142        118
  10.8327        121
  10.8513        104
  10.8699        107
  10.8885        130
  10.9070        129
  10.9256        124
  10.9442        105
  10.9628        126
  10.9813        131
  10.9999        128
  11.0185        130
  11.0371        101
  11.0556        121
  11.0742        112
  11.0928        110
  11.1114        114
  11.1299        119
  11.1485        119
  11.1671        113
  11.1857        119
  11.2043        120
  11.2228        105
  11.2414        104
  11.2600        115
  11.2786        123
  11.2971         95
  11.3157         99
  11.3343        123
  11.3529         90
  11.3714        118
  11.3900        115
  11.4086        118
  11.4272        123
  11.4457        116
  11.4643         99
  11.4829        115
  11.5015        109
  11.5200        123
  11.5386        112
  11.5572        104
  11.5758        113
  11.5943        111
  11.6129        119
  11.6315        134
  11.6501        108
  11.6686        123
  11.6872        124
  11.7058        123
  11.7244        115
  11.7429        111
  11.7615        110
  11.7801        132
  11.7987        113
  11.8172         89
  11.8358        114
  11.8544        120
  11.8730        118
  11.8915        105
  11.9101        113
  11.9287        131
  11.9473        120
  11.9659        131
  11.9844        129
  12.0030        114
  12.0216        122
  12.0402        118
  12.0587        104
  12.0773        122
  12.0959        129
  12.1145         98
  12.1330        100
  12.1516         99
  12.1702        120
  12.1888        101
  12.2073        122
  12.2259         99
  12.2445        128
  12.2631        105
  12.2816         81
  12.3002        130
  12.3188        129
  12.3374         95
  12.3559         92
  12.3745         88
  12.3931        109
  12.4117        108
  12.4302         93
  12.4488        120
  12.4674        106
  12.4860        103
  12.5045        114
  12.5231        116
  12.5417        108
  12.5603        109
  12.5788        105
  12.5974        125
  12.6160        111
  12.6346        116
  12.6531         98
  12.6717        109
  12.6903        104
  12.7089         93
  12.7274        107
  12.7460        108
  12.7646        135
  12.7832        113
  12.8018        108
  12.8203        113
  12.8389        103
  12.8575        118
  12.8761         89
  12.8946        103
  12.9132        100
  12.9318        109
  12.9504        108
  12.9689        100
  12.9875         99
  13.0061        104
  13.0247        111
  13.0432         92
  13.0618         89
  13.0804        101
  13.0990         98
  13.1175         98
  13.1361         95
  13.1547         87
  13.1733         98
  13.1918         91
  13.2104        104
  13.2290        106
  13.2476        102
  13.2661        108
  13.2847         81
  13.3033         81
  13.3219         99
  13.3404        100
  13.3590         98
  13.3776        108
  13.3962        100
  13.4147        115
  13.4333         92
  13.4519        108
  13.4705         95
  13.4890         89
  13.5076        106
  13.5262        104
  13.5448         93
  13.5634        100
  13.5819        124
  13.6005         94
  13.6191         91
  13.6377        102
  13.6562         87
  13.6748         80
  13.6934         97
  13.7120         94
  13.7305         82
  13.7491        111
  13.7677         92
  13.7863         93
  13.8048        104
  13.8234         85
  13.8420        100
  13.8606         90
  13.8791         97
  13.8977         96
  13.9163         78
  13.9349        105
  13.9534         83
  13.9720         86
  13.9906         84
  14.0092         88
  14.0277         81
  14.0463         69
  14.0649         96
  14.0835         85
  14.1020         88
  14.1206        102
  14.1392         86
  14.1578         85
  14.1763         85
  14.1949         95
  14.2135         93
  14.2321         83
  14.2506         91
  14.2692         97
  14.2878         80
  14.3064         85
  14.3250         97
  14.3435         97
  14.3621         99
  14.3807         85
  14.3993         96
  14.4178         89
  14.4364         96
  14.4550         96
  14.4736         65
  14.4921         93
  14.5107         76
  14.5293         92
  14.5479         93
  14.5664         92
  14.5850         97
  14.6036         97
  14.6222         86
  14.6407         76
  14.6593         82
  14.6779         80
  14.6965         91
  14.7150         84
  14.7336         83
  14.7522         84
  14.7708         95
  14.7893         95
  14.8079         90
  14.8265         81
  14.8451         76
  14.8636         87
  14.8822         82
  14.9008         88
  14.9194         84
  14.9379         89
  14.9565         89
  14.9751         92
  14.9937         67
  15.0122         90
  15.0308         78
  15.0494         74
  15.0680         71
  15.0866         96
  15.1051         87
  15.1237         86
  15.1423         79
  15.1609         82
  15.1794         80
  15.1980         62
  15.2166         77
  15.2352         85
  15.2537         71
  15.2723         85
  15.2909         84
  15.3095         81
  15.3280         84
  15.3466         81
  15.3652         93
  15.3838         68
  15.4023         95
  15.4209         89
  15.4395         82
  15.4581         72
  15.4766         84
  15.4952         83
  15.5138         76
  15.5324         79
  15.5509         74
  15.5695         72
  15.5881         87
  15.6067         92
  15.6252         68
  15.6438         92
  15.6624         83
  15.6810        100
  15.6995         75
  15.7181         91
  15.7367         63
  15.7553         63
  15.7738         70
  15.7924         75
  15.8110         68
  15.8296        103
  15.8482         86
  15.8667         99
  15.8853         68
  15.9039         81
  15.9225         92
  15.9410         82
  15.9596         78
  15.9782         68
  15.9968         88
  16.0153         97
  16.0339         76
  16.0525         75
  16.0711         85
  16.0896         85
  16.1082         71
  16.1268         81
  16.1454         93
  16.1639         82
  16.1825         80
  16.2011         94
  16.2197         84
  16.2382         79
  16.2568         87
  16.2754         95
  16.2940         69
  16.3125         78
  16.3311         88
  16.3497         75
  16.3683         79
  16.3868         82
  16.4054         73
  16.4240         84
  16.4426         91
  16.4611         96
  16.4797        100
  16.4983         83
  16.5169         81
  16.5354         83
  16.5540         83
  16.5726         85
  16.5912         78
  16.6097         84
  16.6283         61
  16.6469         88
  16.6655         91
  16.6841         88
  16.7026         76
  16.7212         91
  16.7398         67
  16.7584         77
  16.7769         78
  16.7955         84
  16.8141         72
  16.8327         72
  16.8512         81
  16.8698         65
  16.8884         76
  16.9070         90
  16.9255         84
  16.9441         89
  16.9627         80
  16.9813         65
  16.9998         84
  17.0184         84
  17.0370         75
  17.0556         89
  17.0741         91
  17.0927         76
  17.1113         87
  17.1299         71
  17.1484         78
  17.1670         79
  17.1856         74
  17.2042         90
  17.2227         94
  17.2413        100
  17.2599         77
  17.2785         76
  17.2970         66
  17.3156         78
  17.3342         70
  17.3528         76
  17.3713         73
  17.3899         87
  17.4085         79
  17.4271         81
  17.4457         96
  17.4642         85
  17.4828         67
  17.5014         87
  17.5200         74
  17.5385         77
  17.5571         76
  17.5757         85
  17.5943         86
  17.6128         84
  17.6314         91
  17.6500         75
  17.6686         78
  17.6871         91
  17.7057         84
  17.7243         76
  17.7429         91
  17.7614         73
  17.7800         99
  17.7986         88
  17.8172         80
  17.8357         67
  17.8543         76
  17.8729         88
  17.8915         84
  17.9100         98
  17.9286         85
  17.9472         77
  17.9658         88
  17.9843         86
  18.0029         81
  18.0215         71
  18.0401         85
  18.0586         89
  18.0772         73
  18.0958         67
  18.1144         71
  18.1329         59
  18.1515         62
  18.1701         80
  18.1887         92
  18.2073         78
  18.2258         88
  18.2444         90
  18.2630         89
  18.2816         87
  18.3001         84
  18.3187         75
  18.3373         85
  18.3559         95
  18.3744         76
  18.3930         82
  18.4116         77
  18.4302         81
  18.4487         83
  18.4673         77
  18.4859         90
  18.5045         75
  18.5230         78
  18.5416         99
  18.5602         90
  18.5788         85
  18.5973         68
  18.6159         82
  18.6345         93
  18.6531         72
  18.6716         87
  18.6902         83
  18.7088         75
  18.7274         83
  18.7459         77
  18.7645         85
  18.7831         84
  18.8017         77
  18.8202         78
  18.8388         78
  18.8574         77
  18.8760         76
  18.8945         95
  18.9131         92
  18.9317         82
  18.9503         82
  18.9689         71
  18.9874         75
  19.0060        107
  19.0246         71
  19.0432         92
  19.0617         78
  19.0803         77
  19.0989         95
  19.1175         74
  19.1360         86
  19.1546         89
  19.1732         78
  19.1918         86
  19.2103         75
  19.2289         78
  19.2475         90
  19.2661         86
  19.2846         83
  19.3032         94
  19.3218        100
  19.3404         79
  19.3589         82
  19.3775         80
  19.3961         97
  19.4147         80
  19.4332         94
  19.4518         95
  19.4704         96
  19.4890         76
  19.5075         93
  19.5261         87
  19.5447         92
  19.5633         95
  19.5818        101
  19.6004         79
  19.6190         74
  19.6376         88
  19.6561         90
  19.6747         70
  19.6933         69
  19.7119         99
  19.7305        100
  19.7490         85
  19.7676         73
  19.7862         90
  19.8048         93
  19.8233         83
  19.8419        105
  19.8605         87
  19.8791         90
  19.8976         80
  19.9162         96
  19.9348        100
  19.9534         81
  19.9719         91
  19.9905         88
  20.0091        100
  20.0277        100
  20.0462         77
  20.0648         98
  20.0834        101
  20.1020         87
  20.1205         83
  20.1391         76
  20.1577         94
  20.1763         63
  20.1948        104
  20.2134         94
  20.2320         86
  20.2506        105
  20.2691         75
  20.2877         95
  20.3063        100
  20.3249         97
  20.3434         92
  20.3620         80
  20.3806         94
  20.3992         85
  20.4177         86
  20.4363         87
  20.4549         83
  20.4735         85
