; (content of file Y:\Sam\Apurva-07-20-2022\puck2\ML_20220720_18_SJD_0_LaB6-1min.raw)
_FILEVERSION = 3
_SAMPLE = ML_20220720_18_SJD_0_LaB6-1mi
_+SAMPLE = 
_SITE = USA
_USER = Administrator
_GONIOMETER_CODE = 20
; Goniometer : D8 theta/2theta, stage : Unknown
_ATTACHMENTS_CODE = 0
_GONIOMETER_RADIUS = 200.5
_FIXED_DIVSLIT = 0.6
_FIXED_SAMPLESLIT = 0
_SOLLER_SLITS = 2
_FIXED_DETSLIT = 9.55
_MONOCHROMATOR = 0
; Incident beam monochromator : None
_SOLLER_SLITS_2 = N
_THIN_FILM = N
_BETA_FILTER = Y
_FIXED_ANTISLIT = 5.89
_ANALYZER_CODE = 0
; Received beam analyzer : None
_DATEMEASURED = "25-Jul-2022 18:19:54"
_WL_UNIT = A
_WL1 = 1.5406
_WL2 = 1.54439
_WL3 = 1.39222
_WLRATIO = 0.5
_ANODE = Cu
_V4_INF_CREATOR = XRDWizard
_V4_INF_CREATOR_VERSION = V2.9.0.22
_V4_INF_WIZARD_VERSION = V2.9.0.22
_V4_INF_WIZARD_ADDINS = V2.9.0.22
_V4_INF_WIZARD_DOCTYPE = XRD
_V4_INF_OSUSER = McQueenLab
_V4_INF_USER = Administrator
_V4_INF_SITE = USA
_V4_INF_SAMPLEID = ML_20220720_18_SJD_0_LaB6-1mi

; Data for range 1
_DRIVE = COUPLED
_STEPTIME = 4.23
_STEPSIZE = 0.0185756
_STEPMODE = C
_START = 5
_THETA = 2.5
_2THETA = 5
_KHI = 0
_PHI = 0
_X = 0
_Y = 0
_Z = 0
_DETECTOR = 5
; Detector type : Unknown
_DETECTORSLIT = unkn
_AUX1 = 0
_AUX2 = 0
_AUX3 = 0
_TIMESTARTED = 15
_TEMP_RATE = -1
_TEMP_DELAY = -1
_KV = 40
_MA = 40
_RANGE_WL = 1.5406
_3DPLANE = 0
_V4_ADDITIONALDETECTOR = 257
_V4_PSD2THETA = 3.4307
_V4_PSDCHANNEL1 = 0
_V4_PSDAPERTURE = 12.68
_V4_PSDTYPE = 5
_V4_PSDFIXED = 0
_V4_COUNTERS_MASK = 4096
_V4_DRIVES_MASK = 0
_V4_ENCODERS_MASK = 0
_2THETACOUNTS = 1
; 2THETA  PSD
   5.0000         89
   5.0186         82
   5.0372        106
   5.0557        108
   5.0743         94
   5.0929         94
   5.1115        131
   5.1300        110
   5.1486         92
   5.1672         85
   5.1858         83
   5.2043         88
   5.2229         70
   5.2415         93
   5.2601         86
   5.2786         89
   5.2972        100
   5.3158         90
   5.3344        103
   5.3529         79
   5.3715         93
   5.3901         72
   5.4087         68
   5.4272         76
   5.4458         75
   5.4644         84
   5.4830         83
   5.5015         72
   5.5201         80
   5.5387         81
   5.5573         89
   5.5758         86
   5.5944         75
   5.6130         63
   5.6316         80
   5.6501         85
   5.6687         89
   5.6873         67
   5.7059         80
   5.7244         84
   5.7430         63
   5.7616         65
   5.7802         73
   5.7988         82
   5.8173         66
   5.8359         76
   5.8545         77
   5.8731         84
   5.8916         67
   5.9102         60
   5.9288         68
   5.9474         87
   5.9659         80
   5.9845         62
   6.0031         70
   6.0217         80
   6.0402         91
   6.0588         76
   6.0774         61
   6.0960         74
   6.1145         72
   6.1331         72
   6.1517         60
   6.1703         65
   6.1888         80
   6.2074         58
   6.2260         77
   6.2446         87
   6.2631         65
   6.2817         81
   6.3003         72
   6.3189         56
   6.3374         74
   6.3560         76
   6.3746         60
   6.3932         57
   6.4117         79
   6.4303         63
   6.4489         85
   6.4675         51
   6.4860         70
   6.5046         67
   6.5232         58
   6.5418         63
   6.5604         65
   6.5789         55
   6.5975         61
   6.6161         65
   6.6347         64
   6.6532         50
   6.6718         75
   6.6904         51
   6.7090         53
   6.7275         58
   6.7461         66
   6.7647         75
   6.7833         58
   6.8018         66
   6.8204         50
   6.8390         52
   6.8576         54
   6.8761         58
   6.8947         70
   6.9133         61
   6.9319         45
   6.9504         69
   6.9690         52
   6.9876         60
   7.0062         61
   7.0247         63
   7.0433         55
   7.0619         63
   7.0805         65
   7.0990         65
   7.1176         67
   7.1362         67
   7.1548         58
   7.1733         48
   7.1919         62
   7.2105         56
   7.2291         55
   7.2476         62
   7.2662         64
   7.2848         67
   7.3034         48
   7.3220         70
   7.3405         54
   7.3591         58
   7.3777         56
   7.3963         62
   7.4148         67
   7.4334         71
   7.4520         59
   7.4706         72
   7.4891         44
   7.5077         63
   7.5263         50
   7.5449         62
   7.5634         57
   7.5820         69
   7.6006         76
   7.6192         63
   7.6377         66
   7.6563         68
   7.6749         71
   7.6935         64
   7.7120         62
   7.7306         59
   7.7492         71
   7.7678         67
   7.7863         60
   7.8049         57
   7.8235         70
   7.8421         69
   7.8606         51
   7.8792         73
   7.8978         70
   7.9164         58
   7.9349         73
   7.9535         72
   7.9721         64
   7.9907         65
   8.0092         60
   8.0278         72
   8.0464         71
   8.0650         54
   8.0835         62
   8.1021         75
   8.1207         57
   8.1393         78
   8.1579         71
   8.1764         64
   8.1950         76
   8.2136         60
   8.2322         53
   8.2507         70
   8.2693         60
   8.2879         84
   8.3065         67
   8.3250         66
   8.3436         70
   8.3622         60
   8.3808         64
   8.3993         59
   8.4179         66
   8.4365         74
   8.4551         75
   8.4736         74
   8.4922         81
   8.5108         78
   8.5294         86
   8.5479         67
   8.5665         67
   8.5851         74
   8.6037         73
   8.6222         82
   8.6408         75
   8.6594         78
   8.6780         75
   8.6965         80
   8.7151         79
   8.7337         84
   8.7523         67
   8.7708         57
   8.7894         71
   8.8080         68
   8.8266         85
   8.8451         66
   8.8637         76
   8.8823         71
   8.9009         77
   8.9195         87
   8.9380         85
   8.9566         77
   8.9752         74
   8.9938         75
   9.0123         71
   9.0309         79
   9.0495         78
   9.0681         78
   9.0866         85
   9.1052         77
   9.1238         71
   9.1424         93
   9.1609         84
   9.1795         75
   9.1981         86
   9.2167         86
   9.2352         72
   9.2538         73
   9.2724         77
   9.2910         77
   9.3095         87
   9.3281         70
   9.3467        101
   9.3653         84
   9.3838         85
   9.4024         62
   9.4210         82
   9.4396         87
   9.4581         91
   9.4767         79
   9.4953         76
   9.5139         62
   9.5324         75
   9.5510         66
   9.5696         83
   9.5882         80
   9.6067         89
   9.6253         72
   9.6439         76
   9.6625         66
   9.6811         86
   9.6996         62
   9.7182         87
   9.7368         75
   9.7554         71
   9.7739         87
   9.7925         87
   9.8111         85
   9.8297         74
   9.8482         87
   9.8668         92
   9.8854         87
   9.9040         80
   9.9225         81
   9.9411         94
   9.9597         87
   9.9783         92
   9.9968         92
  10.0154         67
  10.0340         95
  10.0526         97
  10.0711         80
  10.0897         75
  10.1083         91
  10.1269        109
  10.1454         82
  10.1640         85
  10.1826         96
  10.2012         68
  10.2197         97
  10.2383         98
  10.2569         86
  10.2755         85
  10.2940         76
  10.3126         93
  10.3312         92
  10.3498         92
  10.3683         89
  10.3869        105
  10.4055         90
  10.4241         81
  10.4427         84
  10.4612         76
  10.4798         90
  10.4984         93
  10.5170         77
  10.5355         86
  10.5541         82
  10.5727         82
  10.5913         96
  10.6098         95
  10.6284         94
  10.6470         85
  10.6656        105
  10.6841         79
  10.7027         82
  10.7213         86
  10.7399        113
  10.7584         98
  10.7770         98
  10.7956         79
  10.8142         82
  10.8327         98
  10.8513         95
  10.8699         89
  10.8885         72
  10.9070         62
  10.9256         73
  10.9442         83
  10.9628         91
  10.9813         86
  10.9999         95
  11.0185         85
  11.0371         85
  11.0556         79
  11.0742         78
  11.0928         91
  11.1114         93
  11.1299         81
  11.1485         83
  11.1671         87
  11.1857         80
  11.2043         85
  11.2228         75
  11.2414        108
  11.2600         90
  11.2786         81
  11.2971         87
  11.3157         87
  11.3343         94
  11.3529         82
  11.3714        101
  11.3900         98
  11.4086         83
  11.4272         86
  11.4457         73
  11.4643         89
  11.4829         80
  11.5015         87
  11.5200         96
  11.5386         96
  11.5572         81
  11.5758         85
  11.5943         94
  11.6129         77
  11.6315         77
  11.6501         86
  11.6686         79
  11.6872        103
  11.7058         78
  11.7244         78
  11.7429         87
  11.7615         88
  11.7801         76
  11.7987         81
  11.8172         69
  11.8358         83
  11.8544        100
  11.8730         92
  11.8915         99
  11.9101         93
  11.9287         85
  11.9473         79
  11.9659         63
  11.9844         72
  12.0030        107
  12.0216         91
  12.0402         92
  12.0587         81
  12.0773         90
  12.0959         83
  12.1145         93
  12.1330         74
  12.1516         74
  12.1702         92
  12.1888         93
  12.2073         61
  12.2259         84
  12.2445         80
  12.2631         76
  12.2816         86
  12.3002         88
  12.3188        100
  12.3374         85
  12.3559         96
  12.3745         81
  12.3931         84
  12.4117         79
  12.4302         67
  12.4488         87
  12.4674         82
  12.4860         71
  12.5045         75
  12.5231         90
  12.5417         62
  12.5603         75
  12.5788         82
  12.5974         67
  12.6160         84
  12.6346         76
  12.6531         89
  12.6717         74
  12.6903        103
  12.7089         75
  12.7274         76
  12.7460         78
  12.7646         66
  12.7832         70
  12.8018         88
  12.8203         75
  12.8389         87
  12.8575         82
  12.8761         84
  12.8946         79
  12.9132         70
  12.9318         73
  12.9504         68
  12.9689         69
  12.9875         70
  13.0061         81
  13.0247         79
  13.0432         77
  13.0618         82
  13.0804         67
  13.0990         75
  13.1175         65
  13.1361         74
  13.1547         74
  13.1733         61
  13.1918         78
  13.2104         85
  13.2290         64
  13.2476         70
  13.2661         77
  13.2847         66
  13.3033         74
  13.3219         67
  13.3404         75
  13.3590         70
  13.3776         77
  13.3962         79
  13.4147         71
  13.4333         70
  13.4519         97
  13.4705         69
  13.4890         73
  13.5076         96
  13.5262         90
  13.5448         77
  13.5634         72
  13.5819         77
  13.6005         86
  13.6191         63
  13.6377         68
  13.6562         77
  13.6748         70
  13.6934         60
  13.7120         84
  13.7305         67
  13.7491         74
  13.7677         80
  13.7863         61
  13.8048         77
  13.8234         70
  13.8420         76
  13.8606         64
  13.8791         72
  13.8977         74
  13.9163         67
  13.9349         66
  13.9534         73
  13.9720         60
  13.9906         75
  14.0092         47
  14.0277         66
  14.0463         76
  14.0649         76
  14.0835         60
  14.1020         79
  14.1206         52
  14.1392         70
  14.1578         53
  14.1763         63
  14.1949         63
  14.2135         69
  14.2321         60
  14.2506         68
  14.2692         58
  14.2878         74
  14.3064         72
  14.3250         70
  14.3435         67
  14.3621         65
  14.3807         58
  14.3993         59
  14.4178         53
  14.4364         85
  14.4550         65
  14.4736         67
  14.4921         56
  14.5107         62
  14.5293         75
  14.5479         70
  14.5664         72
  14.5850         61
  14.6036         49
  14.6222         57
  14.6407         63
  14.6593         53
  14.6779         56
  14.6965         73
  14.7150         72
  14.7336         67
  14.7522         68
  14.7708         53
  14.7893         52
  14.8079         61
  14.8265         55
  14.8451         54
  14.8636         53
  14.8822         67
  14.9008         52
  14.9194         55
  14.9379         66
  14.9565         68
  14.9751         57
  14.9937         49
  15.0122         60
  15.0308         64
  15.0494         62
  15.0680         60
  15.0866         69
  15.1051         64
  15.1237         58
  15.1423         48
  15.1609         59
  15.1794         58
  15.1980         55
  15.2166         64
  15.2352         66
  15.2537         62
  15.2723         75
  15.2909         65
  15.3095         62
  15.3280         60
  15.3466         61
  15.3652         52
  15.3838         60
  15.4023         65
  15.4209         60
  15.4395         62
  15.4581         55
  15.4766         69
  15.4952         62
  15.5138         68
  15.5324         48
  15.5509         55
  15.5695         69
  15.5881         53
  15.6067         65
  15.6252         64
  15.6438         55
  15.6624         57
  15.6810         64
  15.6995         45
  15.7181         54
  15.7367         59
  15.7553         47
  15.7738         72
  15.7924         50
  15.8110         62
  15.8296         55
  15.8482         73
  15.8667         64
  15.8853         42
  15.9039         49
  15.9225         56
  15.9410         64
  15.9596         55
  15.9782         62
  15.9968         61
  16.0153         59
  16.0339         62
  16.0525         63
  16.0711         47
  16.0896         59
  16.1082         75
  16.1268         64
  16.1454         69
  16.1639         60
  16.1825         52
  16.2011         51
  16.2197         62
  16.2382         62
  16.2568         67
  16.2754         53
  16.2940         56
  16.3125         65
  16.3311         64
  16.3497         67
  16.3683         57
  16.3868         46
  16.4054         58
  16.4240         74
  16.4426         69
  16.4611         52
  16.4797         67
  16.4983         54
  16.5169         64
  16.5354         54
  16.5540         47
  16.5726         49
  16.5912         60
  16.6097         53
  16.6283         47
  16.6469         59
  16.6655         69
  16.6841         75
  16.7026         44
  16.7212         83
  16.7398         69
  16.7584         61
  16.7769         72
  16.7955         61
  16.8141         50
  16.8327         61
  16.8512         59
  16.8698         38
  16.8884         62
  16.9070         77
  16.9255         68
  16.9441         52
  16.9627         54
  16.9813         74
  16.9998         52
  17.0184         51
  17.0370         60
  17.0556         59
  17.0741         56
  17.0927         51
  17.1113         61
  17.1299         58
  17.1484         55
  17.1670         53
  17.1856         65
  17.2042         56
  17.2227         50
  17.2413         55
  17.2599         51
  17.2785         65
  17.2970         51
  17.3156         53
  17.3342         44
  17.3528         68
  17.3713         60
  17.3899         70
  17.4085         64
  17.4271         59
  17.4457         60
  17.4642         55
  17.4828         67
  17.5014         60
  17.5200         51
  17.5385         57
  17.5571         56
  17.5757         46
  17.5943         68
  17.6128         64
  17.6314         73
  17.6500         66
  17.6686         53
  17.6871         57
  17.7057         65
  17.7243         76
  17.7429         52
  17.7614         65
  17.7800         54
  17.7986         48
  17.8172         64
  17.8357         63
  17.8543         54
  17.8729         76
  17.8915         55
  17.9100         69
  17.9286         53
  17.9472         79
  17.9658         71
  17.9843         68
  18.0029         60
  18.0215         47
  18.0401         59
  18.0586         56
  18.0772         72
  18.0958         59
  18.1144         61
  18.1329         65
  18.1515         48
  18.1701         48
  18.1887         52
  18.2073         63
  18.2258         70
  18.2444         59
  18.2630         73
  18.2816         67
  18.3001         66
  18.3187         64
  18.3373         65
  18.3559         61
  18.3744         53
  18.3930         57
  18.4116         58
  18.4302         67
  18.4487         57
  18.4673         59
  18.4859         73
  18.5045         58
  18.5230         43
  18.5416         64
  18.5602         60
  18.5788         59
  18.5973         56
  18.6159         65
  18.6345         48
  18.6531         60
  18.6716         80
  18.6902         63
  18.7088         57
  18.7274         61
  18.7459         66
  18.7645         59
  18.7831         71
  18.8017         57
  18.8202         54
  18.8388         56
  18.8574         63
  18.8760         67
  18.8945         61
  18.9131         53
  18.9317         79
  18.9503         57
  18.9689         61
  18.9874         55
  19.0060         65
  19.0246         61
  19.0432         75
  19.0617         72
  19.0803         47
  19.0989         74
  19.1175         70
  19.1360         60
  19.1546         61
  19.1732         69
  19.1918         61
  19.2103         58
  19.2289         59
  19.2475         64
  19.2661         71
  19.2846         65
  19.3032         59
  19.3218         73
  19.3404         67
  19.3589         74
  19.3775         60
  19.3961         48
  19.4147         61
  19.4332         63
  19.4518         66
  19.4704         64
  19.4890         63
  19.5075         46
  19.5261         69
  19.5447         65
  19.5633         75
  19.5818         69
  19.6004         68
  19.6190         66
  19.6376         81
  19.6561         55
  19.6747         73
  19.6933         58
  19.7119         57
  19.7305         58
  19.7490         76
  19.7676         67
  19.7862         71
  19.8048         90
  19.8233         54
  19.8419         79
  19.8605         59
  19.8791         71
  19.8976         74
  19.9162         57
  19.9348         61
  19.9534         57
  19.9719         65
  19.9905         63
  20.0091         70
  20.0277         52
  20.0462         66
  20.0648         52
  20.0834         80
  20.1020         72
  20.1205         60
  20.1391         65
  20.1577         58
  20.1763         77
  20.1948         77
  20.2134         60
  20.2320         77
  20.2506         55
  20.2691         55
  20.2877         67
  20.3063         61
  20.3249         73
  20.3434         71
  20.3620         65
  20.3806         53
  20.3992         65
  20.4177         71
  20.4363         59
  20.4549         67
  20.4735         61
