; (content of file Y:\Sam\Apurva-07-20-2022\puck4\ML_20220718_40_SJD_4_LaB6-2min.raw)
_FILEVERSION = 3
_SAMPLE = ML_20220718_40_SJD_4_LaB6-2min
_+SAMPLE = 
_SITE = USA
_USER = Administrator
_GONIOMETER_CODE = 20
; Goniometer : D8 theta/2theta, stage : Unknown
_ATTACHMENTS_CODE = 0
_GONIOMETER_RADIUS = 200.5
_FIXED_DIVSLIT = 0.6
_FIXED_SAMPLESLIT = 0
_SOLLER_SLITS = 2
_FIXED_DETSLIT = 9.55
_MONOCHROMATOR = 0
; Incident beam monochromator : None
_SOLLER_SLITS_2 = N
_THIN_FILM = N
_BETA_FILTER = Y
_FIXED_ANTISLIT = 5.89
_ANALYZER_CODE = 0
; Received beam analyzer : None
_DATEMEASURED = "26-Jul-2022 12:03:44"
_WL_UNIT = A
_WL1 = 1.5406
_WL2 = 1.54439
_WL3 = 1.39222
_WLRATIO = 0.5
_ANODE = Cu
_V4_INF_CREATOR = XRDWizard
_V4_INF_CREATOR_VERSION = V2.9.0.22
_V4_INF_WIZARD_VERSION = V2.9.0.22
_V4_INF_WIZARD_ADDINS = V2.9.0.22
_V4_INF_WIZARD_DOCTYPE = XRD
_V4_INF_OSUSER = McQueenLab
_V4_INF_USER = Administrator
_V4_INF_SITE = USA
_V4_INF_SAMPLEID = ML_20220718_40_SJD_4_LaB6-2min

; Data for range 1
_DRIVE = COUPLED
_STEPTIME = 5.64
_STEPSIZE = 0.0185756
_STEPMODE = C
_START = 5
_THETA = 2.5
_2THETA = 5
_KHI = 0
_PHI = 0
_X = 0
_Y = 0
_Z = 0
_DETECTOR = 5
; Detector type : Unknown
_DETECTORSLIT = unkn
_AUX1 = 0
_AUX2 = 0
_AUX3 = 0
_TIMESTARTED = 16
_TEMP_RATE = -1
_TEMP_DELAY = -1
_KV = 40
_MA = 40
_RANGE_WL = 1.5406
_3DPLANE = 0
_V4_ADDITIONALDETECTOR = 257
_V4_PSD2THETA = 3.3729
_V4_PSDCHANNEL1 = 0
_V4_PSDAPERTURE = 12.68
_V4_PSDTYPE = 5
_V4_PSDFIXED = 0
_V4_COUNTERS_MASK = 4096
_V4_DRIVES_MASK = 0
_V4_ENCODERS_MASK = 0
_2THETACOUNTS = 1
; 2THETA  PSD
   5.0000        133
   5.0186        123
   5.0372        138
   5.0557        133
   5.0743        118
   5.0929        122
   5.1115        123
   5.1300        118
   5.1486        107
   5.1672        130
   5.1858        125
   5.2043        116
   5.2229        125
   5.2415        135
   5.2601        131
   5.2786        136
   5.2972        110
   5.3158         97
   5.3344        130
   5.3529        142
   5.3715        123
   5.3901        123
   5.4087        115
   5.4272        130
   5.4458        115
   5.4644        113
   5.4830        112
   5.5015        104
   5.5201        109
   5.5387         91
   5.5573        137
   5.5758        111
   5.5944        114
   5.6130        103
   5.6316        120
   5.6501        118
   5.6687        112
   5.6873        100
   5.7059        100
   5.7244        119
   5.7430         94
   5.7616         93
   5.7802         83
   5.7988        102
   5.8173        113
   5.8359        120
   5.8545        119
   5.8731        101
   5.8916        103
   5.9102        108
   5.9288         84
   5.9474         98
   5.9659         91
   5.9845         94
   6.0031        113
   6.0217        103
   6.0402        122
   6.0588         94
   6.0774         95
   6.0960        100
   6.1145         92
   6.1331         95
   6.1517         92
   6.1703         95
   6.1888        107
   6.2074         98
   6.2260         96
   6.2446        109
   6.2631        105
   6.2817         81
   6.3003         96
   6.3189         95
   6.3374         87
   6.3560        109
   6.3746         95
   6.3932         77
   6.4117        101
   6.4303         91
   6.4489         99
   6.4675         86
   6.4860         80
   6.5046         87
   6.5232         85
   6.5418         91
   6.5604         81
   6.5789         82
   6.5975         95
   6.6161         78
   6.6347         96
   6.6532         95
   6.6718         94
   6.6904         82
   6.7090        106
   6.7275         78
   6.7461         82
   6.7647         73
   6.7833         78
   6.8018         85
   6.8204         99
   6.8390         75
   6.8576         82
   6.8761         90
   6.8947        101
   6.9133         87
   6.9319         89
   6.9504         83
   6.9690         83
   6.9876         92
   7.0062         95
   7.0247         72
   7.0433         85
   7.0619         85
   7.0805         98
   7.0990         81
   7.1176         72
   7.1362         69
   7.1548         87
   7.1733         60
   7.1919         79
   7.2105         74
   7.2291         86
   7.2476         73
   7.2662         69
   7.2848        116
   7.3034         83
   7.3220         85
   7.3405         73
   7.3591         91
   7.3777         75
   7.3963         77
   7.4148         86
   7.4334         78
   7.4520         79
   7.4706         74
   7.4891         75
   7.5077         98
   7.5263         82
   7.5449         76
   7.5634         80
   7.5820         88
   7.6006         98
   7.6192         88
   7.6377         98
   7.6563         96
   7.6749         91
   7.6935         92
   7.7120        108
   7.7306         94
   7.7492        107
   7.7678         97
   7.7863        115
   7.8049         98
   7.8235         98
   7.8421         98
   7.8606         94
   7.8792         90
   7.8978         90
   7.9164         96
   7.9349         89
   7.9535        107
   7.9721         88
   7.9907         92
   8.0092         93
   8.0278        110
   8.0464         86
   8.0650         96
   8.0835         91
   8.1021         95
   8.1207         93
   8.1393        101
   8.1579         91
   8.1764         92
   8.1950         87
   8.2136         90
   8.2322         87
   8.2507        102
   8.2693         89
   8.2879        101
   8.3065         96
   8.3250         98
   8.3436         93
   8.3622         93
   8.3808         97
   8.3993        108
   8.4179         87
   8.4365        102
   8.4551        100
   8.4736        105
   8.4922         90
   8.5108         85
   8.5294         99
   8.5479        101
   8.5665         93
   8.5851        110
   8.6037        105
   8.6222         94
   8.6408         86
   8.6594        106
   8.6780         98
   8.6965         96
   8.7151        101
   8.7337         89
   8.7523         91
   8.7708        109
   8.7894        115
   8.8080         98
   8.8266         96
   8.8451        104
   8.8637        124
   8.8823        102
   8.9009        108
   8.9195        113
   8.9380         98
   8.9566         96
   8.9752        108
   8.9938        114
   9.0123        114
   9.0309         95
   9.0495        102
   9.0681        113
   9.0866         91
   9.1052        100
   9.1238        132
   9.1424        115
   9.1609        120
   9.1795        107
   9.1981        106
   9.2167        103
   9.2352        116
   9.2538        107
   9.2724        123
   9.2910        101
   9.3095        122
   9.3281        101
   9.3467        121
   9.3653        109
   9.3838        117
   9.4024        121
   9.4210        119
   9.4396        111
   9.4581        105
   9.4767        108
   9.4953        141
   9.5139        110
   9.5324        109
   9.5510        102
   9.5696        130
   9.5882         86
   9.6067         97
   9.6253        112
   9.6439        104
   9.6625        124
   9.6811        118
   9.6996        125
   9.7182        128
   9.7368        113
   9.7554        115
   9.7739        119
   9.7925        112
   9.8111        121
   9.8297        119
   9.8482        126
   9.8668        128
   9.8854        111
   9.9040        110
   9.9225        114
   9.9411        116
   9.9597        110
   9.9783        141
   9.9968        109
  10.0154        129
  10.0340        135
  10.0526        129
  10.0711        106
  10.0897        117
  10.1083        111
  10.1269        115
  10.1454        120
  10.1640        128
  10.1826        123
  10.2012        123
  10.2197        138
  10.2383        128
  10.2569        108
  10.2755        127
  10.2940        114
  10.3126        140
  10.3312        134
  10.3498        136
  10.3683        118
  10.3869        124
  10.4055        124
  10.4241        113
  10.4427        128
  10.4612        113
  10.4798        121
  10.4984        132
  10.5170        115
  10.5355        130
  10.5541        119
  10.5727        124
  10.5913        130
  10.6098        126
  10.6284        122
  10.6470        143
  10.6656        123
  10.6841        116
  10.7027        118
  10.7213        118
  10.7399        137
  10.7584        129
  10.7770        136
  10.7956        124
  10.8142        134
  10.8327        122
  10.8513        132
  10.8699        130
  10.8885        114
  10.9070        128
  10.9256        133
  10.9442        130
  10.9628        131
  10.9813        125
  10.9999        103
  11.0185        111
  11.0371        133
  11.0556        144
  11.0742        106
  11.0928        104
  11.1114        132
  11.1299        119
  11.1485        105
  11.1671        131
  11.1857        121
  11.2043        111
  11.2228        116
  11.2414        130
  11.2600        111
  11.2786         93
  11.2971        112
  11.3157        112
  11.3343        115
  11.3529        118
  11.3714        116
  11.3900        117
  11.4086        128
  11.4272        111
  11.4457        115
  11.4643        138
  11.4829        118
  11.5015        137
  11.5200        122
  11.5386        115
  11.5572        116
  11.5758        115
  11.5943        122
  11.6129        121
  11.6315        119
  11.6501        117
  11.6686        101
  11.6872        110
  11.7058        120
  11.7244        124
  11.7429        106
  11.7615        130
  11.7801        140
  11.7987        126
  11.8172        122
  11.8358        125
  11.8544        100
  11.8730        123
  11.8915        110
  11.9101        111
  11.9287        117
  11.9473        125
  11.9659        112
  11.9844        114
  12.0030        113
  12.0216        102
  12.0402        111
  12.0587        133
  12.0773        122
  12.0959        114
  12.1145        134
  12.1330        118
  12.1516        111
  12.1702        128
  12.1888        113
  12.2073        118
  12.2259        105
  12.2445        106
  12.2631        119
  12.2816        107
  12.3002        124
  12.3188        134
  12.3374        111
  12.3559        113
  12.3745        103
  12.3931        123
  12.4117        113
  12.4302        110
  12.4488        118
  12.4674        124
  12.4860        115
  12.5045        111
  12.5231        111
  12.5417        102
  12.5603        113
  12.5788        118
  12.5974        110
  12.6160        110
  12.6346         99
  12.6531        117
  12.6717        115
  12.6903         93
  12.7089        114
  12.7274        107
  12.7460        108
  12.7646         99
  12.7832        125
  12.8018        118
  12.8203        116
  12.8389        101
  12.8575        118
  12.8761        101
  12.8946         96
  12.9132        104
  12.9318        128
  12.9504        130
  12.9689        107
  12.9875        105
  13.0061         91
  13.0247        114
  13.0432        106
  13.0618         95
  13.0804        110
  13.0990        102
  13.1175         78
  13.1361        112
  13.1547        126
  13.1733        111
  13.1918        102
  13.2104        114
  13.2290        107
  13.2476        115
  13.2661        118
  13.2847        108
  13.3033         91
  13.3219         85
  13.3404        101
  13.3590        103
  13.3776        107
  13.3962         86
  13.4147        106
  13.4333        100
  13.4519        104
  13.4705        100
  13.4890         88
  13.5076         97
  13.5262        104
  13.5448         96
  13.5634         99
  13.5819        106
  13.6005        108
  13.6191         76
  13.6377         96
  13.6562        116
  13.6748         98
  13.6934        104
  13.7120        119
  13.7305        101
  13.7491         83
  13.7677        101
  13.7863        108
  13.8048         98
  13.8234        109
  13.8420         95
  13.8606         84
  13.8791         85
  13.8977         98
  13.9163         98
  13.9349        102
  13.9534        106
  13.9720         96
  13.9906        107
  14.0092        101
  14.0277         91
  14.0463        102
  14.0649        103
  14.0835         94
  14.1020        103
  14.1206         63
  14.1392         85
  14.1578        106
  14.1763         86
  14.1949         99
  14.2135         99
  14.2321         83
  14.2506         79
  14.2692         94
  14.2878        109
  14.3064         86
  14.3250         85
  14.3435         69
  14.3621         85
  14.3807         78
  14.3993         96
  14.4178        103
  14.4364         94
  14.4550        104
  14.4736         98
  14.4921         91
  14.5107         86
  14.5293        103
  14.5479         90
  14.5664         95
  14.5850         83
  14.6036         77
  14.6222        100
  14.6407         88
  14.6593         84
  14.6779         92
  14.6965         75
  14.7150         92
  14.7336         76
  14.7522         85
  14.7708         85
  14.7893         86
  14.8079         81
  14.8265         72
  14.8451         90
  14.8636        104
  14.8822         93
  14.9008         77
  14.9194         92
  14.9379         87
  14.9565         78
  14.9751         74
  14.9937         93
  15.0122         81
  15.0308         96
  15.0494         82
  15.0680         95
  15.0866         89
  15.1051        102
  15.1237         87
  15.1423         87
  15.1609         74
  15.1794         87
  15.1980         85
  15.2166         96
  15.2352         81
  15.2537         78
  15.2723         81
  15.2909         87
  15.3095         85
  15.3280         73
  15.3466         71
  15.3652         75
  15.3838         81
  15.4023         88
  15.4209         68
  15.4395         88
  15.4581         79
  15.4766         88
  15.4952         94
  15.5138         85
  15.5324         87
  15.5509         85
  15.5695         89
  15.5881        100
  15.6067         70
  15.6252         72
  15.6438         93
  15.6624         95
  15.6810         74
  15.6995         86
  15.7181         80
  15.7367         89
  15.7553         99
  15.7738         98
  15.7924         83
  15.8110         82
  15.8296         97
  15.8482         75
  15.8667         72
  15.8853         81
  15.9039         84
  15.9225         76
  15.9410         88
  15.9596         86
  15.9782         89
  15.9968         99
  16.0153         69
  16.0339         90
  16.0525         72
  16.0711         93
  16.0896         77
  16.1082         94
  16.1268        111
  16.1454         79
  16.1639         69
  16.1825         90
  16.2011         78
  16.2197         71
  16.2382         79
  16.2568        103
  16.2754        100
  16.2940         82
  16.3125         75
  16.3311         89
  16.3497         95
  16.3683         79
  16.3868         94
  16.4054         71
  16.4240         80
  16.4426         76
  16.4611         85
  16.4797         64
  16.4983         75
  16.5169         86
  16.5354        107
  16.5540         78
  16.5726         83
  16.5912         79
  16.6097         91
  16.6283         84
  16.6469         54
  16.6655         63
  16.6841         83
  16.7026         99
  16.7212         81
  16.7398         82
  16.7584         87
  16.7769        103
  16.7955         75
  16.8141         94
  16.8327         96
  16.8512         63
  16.8698         83
  16.8884         66
  16.9070         70
  16.9255         80
  16.9441         60
  16.9627         73
  16.9813         91
  16.9998         89
  17.0184         79
  17.0370         78
  17.0556         97
  17.0741         85
  17.0927         68
  17.1113         69
  17.1299         82
  17.1484        106
  17.1670         72
  17.1856         83
  17.2042         79
  17.2227         69
  17.2413         88
  17.2599         82
  17.2785         97
  17.2970         73
  17.3156         69
  17.3342         84
  17.3528         81
  17.3713         63
  17.3899         76
  17.4085         85
  17.4271         90
  17.4457         72
  17.4642         88
  17.4828         78
  17.5014         81
  17.5200        106
  17.5385         80
  17.5571         82
  17.5757         80
  17.5943         83
  17.6128         76
  17.6314         73
  17.6500         93
  17.6686         66
  17.6871         78
  17.7057         72
  17.7243         72
  17.7429         86
  17.7614         75
  17.7800         76
  17.7986         77
  17.8172         89
  17.8357         79
  17.8543         77
  17.8729         81
  17.8915         93
  17.9100         80
  17.9286         82
  17.9472         82
  17.9658         78
  17.9843         94
  18.0029         88
  18.0215         86
  18.0401         85
  18.0586         75
  18.0772         67
  18.0958         89
  18.1144         89
  18.1329         84
  18.1515         70
  18.1701         79
  18.1887         87
  18.2073         95
  18.2258         73
  18.2444         94
  18.2630         76
  18.2816         89
  18.3001         82
  18.3187         84
  18.3373         97
  18.3559         81
  18.3744         74
  18.3930         88
  18.4116         74
  18.4302         84
  18.4487         72
  18.4673         78
  18.4859         83
  18.5045         71
  18.5230         75
  18.5416         81
  18.5602         89
  18.5788         80
  18.5973         84
  18.6159         82
  18.6345         75
  18.6531         85
  18.6716         93
  18.6902         90
  18.7088         98
  18.7274         83
  18.7459         77
  18.7645        113
  18.7831         86
  18.8017         78
  18.8202         80
  18.8388         92
  18.8574         73
  18.8760         79
  18.8945         89
  18.9131         92
  18.9317         84
  18.9503         98
  18.9689         75
  18.9874         84
  19.0060         87
  19.0246         75
  19.0432         85
  19.0617         75
  19.0803         73
  19.0989         81
  19.1175         92
  19.1360         87
  19.1546         72
  19.1732         69
  19.1918         76
  19.2103         81
  19.2289         70
  19.2475         87
  19.2661         87
  19.2846         78
  19.3032        102
  19.3218         95
  19.3404         89
  19.3589         84
  19.3775         91
  19.3961         86
  19.4147         85
  19.4332         90
  19.4518         77
  19.4704         93
  19.4890         91
  19.5075         83
  19.5261         86
  19.5447         80
  19.5633         90
  19.5818         96
  19.6004        109
  19.6190         90
  19.6376         80
  19.6561         88
  19.6747         96
  19.6933         91
  19.7119         98
  19.7305        115
  19.7490         94
  19.7676         91
  19.7862         90
  19.8048         88
  19.8233        101
  19.8419         82
  19.8605         88
  19.8791        104
  19.8976         95
  19.9162         89
  19.9348         94
  19.9534         94
  19.9719         79
  19.9905         71
  20.0091         70
  20.0277         80
  20.0462        104
  20.0648         89
  20.0834         89
  20.1020         97
  20.1205         90
  20.1391        105
  20.1577         98
  20.1763         90
  20.1948         89
  20.2134         89
  20.2320         94
  20.2506         91
  20.2691         85
  20.2877         88
  20.3063         95
  20.3249         96
  20.3434         84
  20.3620        100
  20.3806         82
  20.3992         96
  20.4177        104
  20.4363         82
  20.4549         95
  20.4735         79
