; (content of file Y:\Sam\Apurva-07-20-2022\puck4\ML_20220718_40_SJD_4_LaB6-4min.raw)
_FILEVERSION = 3
_SAMPLE = ML_20220718_40_SJD_4_LaB6-4min
_+SAMPLE = 
_SITE = USA
_USER = Administrator
_GONIOMETER_CODE = 20
; Goniometer : D8 theta/2theta, stage : Unknown
_ATTACHMENTS_CODE = 0
_GONIOMETER_RADIUS = 200.5
_FIXED_DIVSLIT = 0.6
_FIXED_SAMPLESLIT = 0
_SOLLER_SLITS = 2
_FIXED_DETSLIT = 9.55
_MONOCHROMATOR = 0
; Incident beam monochromator : None
_SOLLER_SLITS_2 = N
_THIN_FILM = N
_BETA_FILTER = Y
_FIXED_ANTISLIT = 5.89
_ANALYZER_CODE = 0
; Received beam analyzer : None
_DATEMEASURED = "26-Jul-2022 13:16:01"
_WL_UNIT = A
_WL1 = 1.5406
_WL2 = 1.54439
_WL3 = 1.39222
_WLRATIO = 0.5
_ANODE = Cu
_V4_INF_CREATOR = XRDWizard
_V4_INF_CREATOR_VERSION = V2.9.0.22
_V4_INF_WIZARD_VERSION = V2.9.0.22
_V4_INF_WIZARD_ADDINS = V2.9.0.22
_V4_INF_WIZARD_DOCTYPE = XRD
_V4_INF_OSUSER = McQueenLab
_V4_INF_USER = Administrator
_V4_INF_SITE = USA
_V4_INF_SAMPLEID = ML_20220718_40_SJD_4_LaB6-4min

; Data for range 1
_DRIVE = COUPLED
_STEPTIME = 11.28
_STEPSIZE = 0.0185756
_STEPMODE = C
_START = 5
_THETA = 2.5
_2THETA = 5
_KHI = 0
_PHI = 0
_X = 0
_Y = 0
_Z = 0
_DETECTOR = 5
; Detector type : Unknown
_DETECTORSLIT = unkn
_AUX1 = 0
_AUX2 = 0
_AUX3 = 0
_TIMESTARTED = 16
_TEMP_RATE = -1
_TEMP_DELAY = -1
_KV = 40
_MA = 40
_RANGE_WL = 1.5406
_3DPLANE = 0
_V4_ADDITIONALDETECTOR = 257
_V4_PSD2THETA = 3.3661
_V4_PSDCHANNEL1 = 0
_V4_PSDAPERTURE = 12.68
_V4_PSDTYPE = 5
_V4_PSDFIXED = 0
_V4_COUNTERS_MASK = 4096
_V4_DRIVES_MASK = 0
_V4_ENCODERS_MASK = 0
_2THETACOUNTS = 1
; 2THETA  PSD
   5.0000        265
   5.0186        239
   5.0372        290
   5.0557        236
   5.0743        252
   5.0929        239
   5.1115        258
   5.1300        296
   5.1486        256
   5.1672        255
   5.1858        239
   5.2043        252
   5.2229        250
   5.2415        276
   5.2601        231
   5.2786        260
   5.2972        228
   5.3158        250
   5.3344        252
   5.3529        270
   5.3715        238
   5.3901        225
   5.4087        255
   5.4272        251
   5.4458        263
   5.4644        239
   5.4830        212
   5.5015        247
   5.5201        228
   5.5387        224
   5.5573        218
   5.5758        228
   5.5944        214
   5.6130        241
   5.6316        221
   5.6501        226
   5.6687        200
   5.6873        200
   5.7059        232
   5.7244        198
   5.7430        234
   5.7616        219
   5.7802        219
   5.7988        192
   5.8173        222
   5.8359        214
   5.8545        206
   5.8731        219
   5.8916        220
   5.9102        220
   5.9288        223
   5.9474        206
   5.9659        189
   5.9845        222
   6.0031        198
   6.0217        205
   6.0402        196
   6.0588        203
   6.0774        185
   6.0960        177
   6.1145        211
   6.1331        202
   6.1517        190
   6.1703        215
   6.1888        193
   6.2074        209
   6.2260        205
   6.2446        205
   6.2631        214
   6.2817        195
   6.3003        171
   6.3189        169
   6.3374        185
   6.3560        197
   6.3746        168
   6.3932        194
   6.4117        182
   6.4303        177
   6.4489        163
   6.4675        186
   6.4860        170
   6.5046        181
   6.5232        171
   6.5418        163
   6.5604        190
   6.5789        178
   6.5975        182
   6.6161        194
   6.6347        178
   6.6532        173
   6.6718        166
   6.6904        176
   6.7090        151
   6.7275        180
   6.7461        168
   6.7647        150
   6.7833        182
   6.8018        172
   6.8204        173
   6.8390        173
   6.8576        162
   6.8761        179
   6.8947        169
   6.9133        175
   6.9319        167
   6.9504        177
   6.9690        155
   6.9876        153
   7.0062        163
   7.0247        165
   7.0433        176
   7.0619        160
   7.0805        151
   7.0990        151
   7.1176        159
   7.1362        159
   7.1548        166
   7.1733        157
   7.1919        172
   7.2105        145
   7.2291        165
   7.2476        154
   7.2662        156
   7.2848        163
   7.3034        154
   7.3220        156
   7.3405        158
   7.3591        144
   7.3777        158
   7.3963        176
   7.4148        163
   7.4334        187
   7.4520        157
   7.4706        141
   7.4891        158
   7.5077        165
   7.5263        163
   7.5449        137
   7.5634        175
   7.5820        167
   7.6006        164
   7.6192        171
   7.6377        174
   7.6563        172
   7.6749        176
   7.6935        175
   7.7120        196
   7.7306        171
   7.7492        174
   7.7678        162
   7.7863        182
   7.8049        192
   7.8235        188
   7.8421        201
   7.8606        188
   7.8792        199
   7.8978        164
   7.9164        180
   7.9349        193
   7.9535        198
   7.9721        214
   7.9907        217
   8.0092        181
   8.0278        189
   8.0464        185
   8.0650        196
   8.0835        186
   8.1021        179
   8.1207        188
   8.1393        205
   8.1579        198
   8.1764        189
   8.1950        206
   8.2136        207
   8.2322        201
   8.2507        196
   8.2693        180
   8.2879        181
   8.3065        185
   8.3250        209
   8.3436        204
   8.3622        222
   8.3808        187
   8.3993        186
   8.4179        190
   8.4365        209
   8.4551        190
   8.4736        202
   8.4922        194
   8.5108        208
   8.5294        196
   8.5479        220
   8.5665        175
   8.5851        219
   8.6037        216
   8.6222        207
   8.6408        215
   8.6594        188
   8.6780        213
   8.6965        208
   8.7151        187
   8.7337        218
   8.7523        188
   8.7708        214
   8.7894        229
   8.8080        218
   8.8266        217
   8.8451        192
   8.8637        198
   8.8823        237
   8.9009        203
   8.9195        211
   8.9380        209
   8.9566        217
   8.9752        208
   8.9938        219
   9.0123        240
   9.0309        231
   9.0495        212
   9.0681        197
   9.0866        208
   9.1052        233
   9.1238        185
   9.1424        218
   9.1609        239
   9.1795        247
   9.1981        219
   9.2167        215
   9.2352        199
   9.2538        225
   9.2724        203
   9.2910        225
   9.3095        261
   9.3281        212
   9.3467        226
   9.3653        233
   9.3838        211
   9.4024        245
   9.4210        222
   9.4396        240
   9.4581        222
   9.4767        206
   9.4953        199
   9.5139        235
   9.5324        246
   9.5510        229
   9.5696        255
   9.5882        235
   9.6067        211
   9.6253        251
   9.6439        249
   9.6625        220
   9.6811        240
   9.6996        236
   9.7182        212
   9.7368        229
   9.7554        247
   9.7739        233
   9.7925        240
   9.8111        252
   9.8297        245
   9.8482        229
   9.8668        227
   9.8854        218
   9.9040        258
   9.9225        229
   9.9411        264
   9.9597        236
   9.9783        228
   9.9968        257
  10.0154        248
  10.0340        237
  10.0526        250
  10.0711        238
  10.0897        221
  10.1083        243
  10.1269        236
  10.1454        234
  10.1640        247
  10.1826        245
  10.2012        224
  10.2197        278
  10.2383        249
  10.2569        246
  10.2755        241
  10.2940        245
  10.3126        237
  10.3312        267
  10.3498        244
  10.3683        225
  10.3869        248
  10.4055        271
  10.4241        271
  10.4427        248
  10.4612        234
  10.4798        263
  10.4984        251
  10.5170        234
  10.5355        253
  10.5541        242
  10.5727        216
  10.5913        267
  10.6098        246
  10.6284        271
  10.6470        278
  10.6656        232
  10.6841        244
  10.7027        246
  10.7213        242
  10.7399        271
  10.7584        234
  10.7770        255
  10.7956        258
  10.8142        244
  10.8327        228
  10.8513        247
  10.8699        235
  10.8885        240
  10.9070        236
  10.9256        234
  10.9442        260
  10.9628        257
  10.9813        236
  10.9999        231
  11.0185        250
  11.0371        239
  11.0556        236
  11.0742        245
  11.0928        253
  11.1114        243
  11.1299        251
  11.1485        202
  11.1671        263
  11.1857        233
  11.2043        221
  11.2228        258
  11.2414        247
  11.2600        262
  11.2786        242
  11.2971        235
  11.3157        238
  11.3343        247
  11.3529        226
  11.3714        275
  11.3900        238
  11.4086        264
  11.4272        259
  11.4457        223
  11.4643        226
  11.4829        261
  11.5015        224
  11.5200        220
  11.5386        233
  11.5572        226
  11.5758        240
  11.5943        241
  11.6129        245
  11.6315        234
  11.6501        234
  11.6686        242
  11.6872        245
  11.7058        226
  11.7244        245
  11.7429        226
  11.7615        228
  11.7801        246
  11.7987        222
  11.8172        240
  11.8358        237
  11.8544        255
  11.8730        213
  11.8915        214
  11.9101        234
  11.9287        219
  11.9473        217
  11.9659        274
  11.9844        225
  12.0030        223
  12.0216        222
  12.0402        218
  12.0587        231
  12.0773        206
  12.0959        249
  12.1145        231
  12.1330        246
  12.1516        241
  12.1702        254
  12.1888        210
  12.2073        229
  12.2259        229
  12.2445        197
  12.2631        233
  12.2816        205
  12.3002        211
  12.3188        236
  12.3374        233
  12.3559        257
  12.3745        246
  12.3931        246
  12.4117        231
  12.4302        220
  12.4488        232
  12.4674        204
  12.4860        214
  12.5045        219
  12.5231        216
  12.5417        199
  12.5603        227
  12.5788        197
  12.5974        234
  12.6160        250
  12.6346        230
  12.6531        229
  12.6717        225
  12.6903        233
  12.7089        230
  12.7274        238
  12.7460        211
  12.7646        219
  12.7832        225
  12.8018        207
  12.8203        207
  12.8389        197
  12.8575        216
  12.8761        207
  12.8946        214
  12.9132        244
  12.9318        211
  12.9504        220
  12.9689        195
  12.9875        203
  13.0061        190
  13.0247        224
  13.0432        193
  13.0618        230
  13.0804        205
  13.0990        193
  13.1175        181
  13.1361        227
  13.1547        184
  13.1733        197
  13.1918        231
  13.2104        227
  13.2290        205
  13.2476        196
  13.2661        219
  13.2847        184
  13.3033        199
  13.3219        202
  13.3404        196
  13.3590        217
  13.3776        200
  13.3962        202
  13.4147        203
  13.4333        181
  13.4519        218
  13.4705        215
  13.4890        182
  13.5076        216
  13.5262        220
  13.5448        202
  13.5634        191
  13.5819        177
  13.6005        187
  13.6191        204
  13.6377        166
  13.6562        214
  13.6748        191
  13.6934        198
  13.7120        192
  13.7305        198
  13.7491        178
  13.7677        200
  13.7863        167
  13.8048        200
  13.8234        196
  13.8420        166
  13.8606        213
  13.8791        182
  13.8977        213
  13.9163        205
  13.9349        200
  13.9534        205
  13.9720        177
  13.9906        188
  14.0092        199
  14.0277        207
  14.0463        175
  14.0649        201
  14.0835        178
  14.1020        186
  14.1206        165
  14.1392        176
  14.1578        191
  14.1763        178
  14.1949        169
  14.2135        181
  14.2321        199
  14.2506        168
  14.2692        186
  14.2878        197
  14.3064        175
  14.3250        171
  14.3435        181
  14.3621        191
  14.3807        164
  14.3993        216
  14.4178        169
  14.4364        184
  14.4550        180
  14.4736        171
  14.4921        185
  14.5107        176
  14.5293        178
  14.5479        171
  14.5664        175
  14.5850        161
  14.6036        186
  14.6222        187
  14.6407        155
  14.6593        160
  14.6779        162
  14.6965        172
  14.7150        154
  14.7336        181
  14.7522        168
  14.7708        182
  14.7893        170
  14.8079        169
  14.8265        168
  14.8451        165
  14.8636        167
  14.8822        181
  14.9008        172
  14.9194        186
  14.9379        167
  14.9565        179
  14.9751        176
  14.9937        168
  15.0122        196
  15.0308        179
  15.0494        155
  15.0680        155
  15.0866        165
  15.1051        163
  15.1237        164
  15.1423        162
  15.1609        176
  15.1794        179
  15.1980        165
  15.2166        162
  15.2352        152
  15.2537        177
  15.2723        167
  15.2909        161
  15.3095        168
  15.3280        144
  15.3466        163
  15.3652        154
  15.3838        177
  15.4023        175
  15.4209        161
  15.4395        158
  15.4581        163
  15.4766        175
  15.4952        154
  15.5138        157
  15.5324        167
  15.5509        182
  15.5695        184
  15.5881        161
  15.6067        169
  15.6252        158
  15.6438        152
  15.6624        164
  15.6810        170
  15.6995        173
  15.7181        169
  15.7367        152
  15.7553        185
  15.7738        168
  15.7924        177
  15.8110        164
  15.8296        160
  15.8482        163
  15.8667        177
  15.8853        167
  15.9039        192
  15.9225        156
  15.9410        167
  15.9596        184
  15.9782        157
  15.9968        163
  16.0153        164
  16.0339        180
  16.0525        157
  16.0711        175
  16.0896        167
  16.1082        180
  16.1268        169
  16.1454        157
  16.1639        169
  16.1825        159
  16.2011        169
  16.2197        179
  16.2382        184
  16.2568        177
  16.2754        177
  16.2940        159
  16.3125        166
  16.3311        147
  16.3497        147
  16.3683        177
  16.3868        171
  16.4054        158
  16.4240        169
  16.4426        158
  16.4611        168
  16.4797        195
  16.4983        161
  16.5169        154
  16.5354        171
  16.5540        157
  16.5726        162
  16.5912        152
  16.6097        158
  16.6283        178
  16.6469        147
  16.6655        158
  16.6841        175
  16.7026        156
  16.7212        146
  16.7398        164
  16.7584        155
  16.7769        162
  16.7955        179
  16.8141        181
  16.8327        182
  16.8512        171
  16.8698        161
  16.8884        189
  16.9070        154
  16.9255        139
  16.9441        171
  16.9627        149
  16.9813        163
  16.9998        167
  17.0184        162
  17.0370        178
  17.0556        183
  17.0741        178
  17.0927        167
  17.1113        164
  17.1299        177
  17.1484        156
  17.1670        163
  17.1856        162
  17.2042        174
  17.2227        175
  17.2413        158
  17.2599        147
  17.2785        165
  17.2970        155
  17.3156        142
  17.3342        156
  17.3528        170
  17.3713        170
  17.3899        158
  17.4085        169
  17.4271        154
  17.4457        183
  17.4642        161
  17.4828        159
  17.5014        138
  17.5200        179
  17.5385        157
  17.5571        134
  17.5757        172
  17.5943        160
  17.6128        177
  17.6314        148
  17.6500        134
  17.6686        146
  17.6871        152
  17.7057        170
  17.7243        159
  17.7429        184
  17.7614        182
  17.7800        180
  17.7986        189
  17.8172        167
  17.8357        153
  17.8543        169
  17.8729        160
  17.8915        175
  17.9100        172
  17.9286        166
  17.9472        174
  17.9658        151
  17.9843        161
  18.0029        179
  18.0215        181
  18.0401        148
  18.0586        165
  18.0772        174
  18.0958        197
  18.1144        152
  18.1329        166
  18.1515        194
  18.1701        161
  18.1887        174
  18.2073        176
  18.2258        172
  18.2444        177
  18.2630        178
  18.2816        158
  18.3001        185
  18.3187        161
  18.3373        172
  18.3559        185
  18.3744        175
  18.3930        172
  18.4116        191
  18.4302        201
  18.4487        166
  18.4673        161
  18.4859        182
  18.5045        166
  18.5230        159
  18.5416        186
  18.5602        159
  18.5788        156
  18.5973        188
  18.6159        183
  18.6345        173
  18.6531        177
  18.6716        176
  18.6902        171
  18.7088        167
  18.7274        192
  18.7459        169
  18.7645        173
  18.7831        163
  18.8017        192
  18.8202        183
  18.8388        181
  18.8574        182
  18.8760        181
  18.8945        159
  18.9131        189
  18.9317        159
  18.9503        165
  18.9689        203
  18.9874        198
  19.0060        180
  19.0246        149
  19.0432        180
  19.0617        152
  19.0803        161
  19.0989        171
  19.1175        185
  19.1360        186
  19.1546        165
  19.1732        163
  19.1918        165
  19.2103        168
  19.2289        191
  19.2475        172
  19.2661        197
  19.2846        181
  19.3032        185
  19.3218        148
  19.3404        161
  19.3589        184
  19.3775        181
  19.3961        172
  19.4147        186
  19.4332        177
  19.4518        168
  19.4704        170
  19.4890        129
  19.5075        171
  19.5261        156
  19.5447        179
  19.5633        173
  19.5818        172
  19.6004        149
  19.6190        174
  19.6376        154
  19.6561        194
  19.6747        183
  19.6933        171
  19.7119        178
  19.7305        179
  19.7490        189
  19.7676        184
  19.7862        193
  19.8048        180
  19.8233        195
  19.8419        215
  19.8605        180
  19.8791        150
  19.8976        164
  19.9162        166
  19.9348        185
  19.9534        175
  19.9719        180
  19.9905        168
  20.0091        173
  20.0277        169
  20.0462        180
  20.0648        182
  20.0834        187
  20.1020        187
  20.1205        164
  20.1391        195
  20.1577        214
  20.1763        184
  20.1948        181
  20.2134        191
  20.2320        178
  20.2506        189
  20.2691        183
  20.2877        168
  20.3063        177
  20.3249        207
  20.3434        197
  20.3620        183
  20.3806        185
  20.3992        211
  20.4177        159
  20.4363        191
  20.4549        178
  20.4735        180
