; (content of file Y:\Sam\Apurva-07-20-2022\puck1\ML_20220721_11_SJD_0_LaB6-4min.raw)
_FILEVERSION = 3
_SAMPLE = ML_20220721_11_SJD_0_LaB6-4min
_+SAMPLE = 
_SITE = USA
_USER = Administrator
_GONIOMETER_CODE = 20
; Goniometer : D8 theta/2theta, stage : Unknown
_ATTACHMENTS_CODE = 0
_GONIOMETER_RADIUS = 200.5
_FIXED_DIVSLIT = 0.6
_FIXED_SAMPLESLIT = 0
_SOLLER_SLITS = 2
_FIXED_DETSLIT = 9.55
_MONOCHROMATOR = 0
; Incident beam monochromator : None
_SOLLER_SLITS_2 = N
_THIN_FILM = N
_BETA_FILTER = Y
_FIXED_ANTISLIT = 5.89
_ANALYZER_CODE = 0
; Received beam analyzer : None
_DATEMEASURED = "25-Jul-2022 14:41:55"
_WL_UNIT = A
_WL1 = 1.5406
_WL2 = 1.54439
_WL3 = 1.39222
_WLRATIO = 0.5
_ANODE = Cu
_V4_INF_CREATOR = XRDWizard
_V4_INF_CREATOR_VERSION = V2.9.0.22
_V4_INF_WIZARD_VERSION = V2.9.0.22
_V4_INF_WIZARD_ADDINS = V2.9.0.22
_V4_INF_WIZARD_DOCTYPE = XRD
_V4_INF_OSUSER = McQueenLab
_V4_INF_USER = Administrator
_V4_INF_SITE = USA
_V4_INF_SAMPLEID = ML_20220721_11_SJD_0_LaB6-4min

; Data for range 1
_DRIVE = COUPLED
_STEPTIME = 11.28
_STEPSIZE = 0.0185756
_STEPMODE = C
_START = 5
_THETA = 2.5
_2THETA = 5
_KHI = 0
_PHI = 0
_X = 0
_Y = 0
_Z = 0
_DETECTOR = 5
; Detector type : Unknown
_DETECTORSLIT = unkn
_AUX1 = 0
_AUX2 = 0
_AUX3 = 0
_TIMESTARTED = 16
_TEMP_RATE = -1
_TEMP_DELAY = -1
_KV = 40
_MA = 40
_RANGE_WL = 1.5406
_3DPLANE = 0
_V4_ADDITIONALDETECTOR = 257
_V4_PSD2THETA = 3.3924
_V4_PSDCHANNEL1 = 0
_V4_PSDAPERTURE = 12.68
_V4_PSDTYPE = 5
_V4_PSDFIXED = 0
_V4_COUNTERS_MASK = 4096
_V4_DRIVES_MASK = 0
_V4_ENCODERS_MASK = 0
_2THETACOUNTS = 1
; 2THETA  PSD
   5.0000        288
   5.0186        256
   5.0372        225
   5.0557        245
   5.0743        256
   5.0929        217
   5.1115        217
   5.1300        251
   5.1486        222
   5.1672        245
   5.1858        220
   5.2043        209
   5.2229        234
   5.2415        216
   5.2601        225
   5.2786        212
   5.2972        244
   5.3158        241
   5.3344        206
   5.3529        262
   5.3715        222
   5.3901        192
   5.4087        228
   5.4272        213
   5.4458        212
   5.4644        215
   5.4830        206
   5.5015        232
   5.5201        205
   5.5387        213
   5.5573        214
   5.5758        229
   5.5944        235
   5.6130        207
   5.6316        199
   5.6501        221
   5.6687        211
   5.6873        213
   5.7059        193
   5.7244        184
   5.7430        209
   5.7616        195
   5.7802        195
   5.7988        170
   5.8173        193
   5.8359        196
   5.8545        211
   5.8731        184
   5.8916        171
   5.9102        226
   5.9288        183
   5.9474        219
   5.9659        156
   5.9845        185
   6.0031        184
   6.0217        179
   6.0402        195
   6.0588        195
   6.0774        201
   6.0960        190
   6.1145        196
   6.1331        155
   6.1517        179
   6.1703        193
   6.1888        189
   6.2074        162
   6.2260        184
   6.2446        186
   6.2631        188
   6.2817        196
   6.3003        154
   6.3189        155
   6.3374        175
   6.3560        172
   6.3746        189
   6.3932        176
   6.4117        174
   6.4303        192
   6.4489        187
   6.4675        198
   6.4860        167
   6.5046        193
   6.5232        189
   6.5418        192
   6.5604        184
   6.5789        160
   6.5975        167
   6.6161        165
   6.6347        166
   6.6532        173
   6.6718        191
   6.6904        166
   6.7090        151
   6.7275        169
   6.7461        156
   6.7647        163
   6.7833        157
   6.8018        180
   6.8204        162
   6.8390        185
   6.8576        154
   6.8761        157
   6.8947        153
   6.9133        154
   6.9319        164
   6.9504        157
   6.9690        142
   6.9876        137
   7.0062        147
   7.0247        157
   7.0433        156
   7.0619        151
   7.0805        153
   7.0990        172
   7.1176        166
   7.1362        172
   7.1548        158
   7.1733        170
   7.1919        151
   7.2105        146
   7.2291        164
   7.2476        161
   7.2662        153
   7.2848        167
   7.3034        147
   7.3220        171
   7.3405        160
   7.3591        161
   7.3777        162
   7.3963        159
   7.4148        158
   7.4334        155
   7.4520        186
   7.4706        176
   7.4891        154
   7.5077        152
   7.5263        159
   7.5449        178
   7.5634        154
   7.5820        183
   7.6006        176
   7.6192        173
   7.6377        170
   7.6563        179
   7.6749        192
   7.6935        157
   7.7120        193
   7.7306        172
   7.7492        182
   7.7678        171
   7.7863        170
   7.8049        182
   7.8235        165
   7.8421        175
   7.8606        171
   7.8792        198
   7.8978        189
   7.9164        191
   7.9349        192
   7.9535        175
   7.9721        178
   7.9907        207
   8.0092        197
   8.0278        179
   8.0464        176
   8.0650        176
   8.0835        169
   8.1021        178
   8.1207        181
   8.1393        183
   8.1579        192
   8.1764        198
   8.1950        205
   8.2136        234
   8.2322        169
   8.2507        168
   8.2693        177
   8.2879        179
   8.3065        220
   8.3250        188
   8.3436        217
   8.3622        182
   8.3808        186
   8.3993        189
   8.4179        209
   8.4365        209
   8.4551        201
   8.4736        166
   8.4922        196
   8.5108        197
   8.5294        229
   8.5479        183
   8.5665        205
   8.5851        184
   8.6037        194
   8.6222        196
   8.6408        192
   8.6594        209
   8.6780        189
   8.6965        223
   8.7151        227
   8.7337        196
   8.7523        201
   8.7708        183
   8.7894        210
   8.8080        186
   8.8266        230
   8.8451        202
   8.8637        218
   8.8823        202
   8.9009        210
   8.9195        218
   8.9380        235
   8.9566        233
   8.9752        191
   8.9938        241
   9.0123        217
   9.0309        257
   9.0495        226
   9.0681        232
   9.0866        183
   9.1052        209
   9.1238        222
   9.1424        206
   9.1609        205
   9.1795        236
   9.1981        228
   9.2167        241
   9.2352        208
   9.2538        257
   9.2724        214
   9.2910        235
   9.3095        210
   9.3281        222
   9.3467        240
   9.3653        189
   9.3838        205
   9.4024        213
   9.4210        204
   9.4396        261
   9.4581        221
   9.4767        246
   9.4953        240
   9.5139        241
   9.5324        228
   9.5510        233
   9.5696        231
   9.5882        224
   9.6067        269
   9.6253        222
   9.6439        236
   9.6625        225
   9.6811        233
   9.6996        205
   9.7182        232
   9.7368        223
   9.7554        236
   9.7739        238
   9.7925        220
   9.8111        243
   9.8297        229
   9.8482        233
   9.8668        253
   9.8854        272
   9.9040        260
   9.9225        234
   9.9411        223
   9.9597        211
   9.9783        285
   9.9968        253
  10.0154        265
  10.0340        232
  10.0526        214
  10.0711        231
  10.0897        231
  10.1083        222
  10.1269        235
  10.1454        300
  10.1640        240
  10.1826        277
  10.2012        221
  10.2197        240
  10.2383        236
  10.2569        270
  10.2755        267
  10.2940        257
  10.3126        231
  10.3312        291
  10.3498        244
  10.3683        291
  10.3869        254
  10.4055        230
  10.4241        204
  10.4427        258
  10.4612        286
  10.4798        229
  10.4984        215
  10.5170        230
  10.5355        245
  10.5541        202
  10.5727        255
  10.5913        233
  10.6098        254
  10.6284        252
  10.6470        224
  10.6656        236
  10.6841        250
  10.7027        215
  10.7213        224
  10.7399        223
  10.7584        265
  10.7770        236
  10.7956        240
  10.8142        259
  10.8327        218
  10.8513        242
  10.8699        252
  10.8885        261
  10.9070        264
  10.9256        266
  10.9442        274
  10.9628        243
  10.9813        247
  10.9999        227
  11.0185        241
  11.0371        275
  11.0556        219
  11.0742        244
  11.0928        219
  11.1114        231
  11.1299        235
  11.1485        249
  11.1671        230
  11.1857        216
  11.2043        251
  11.2228        237
  11.2414        251
  11.2600        246
  11.2786        231
  11.2971        261
  11.3157        212
  11.3343        258
  11.3529        259
  11.3714        231
  11.3900        250
  11.4086        219
  11.4272        229
  11.4457        239
  11.4643        283
  11.4829        229
  11.5015        228
  11.5200        227
  11.5386        258
  11.5572        240
  11.5758        212
  11.5943        224
  11.6129        238
  11.6315        249
  11.6501        275
  11.6686        250
  11.6872        255
  11.7058        261
  11.7244        251
  11.7429        253
  11.7615        221
  11.7801        235
  11.7987        236
  11.8172        246
  11.8358        251
  11.8544        236
  11.8730        237
  11.8915        226
  11.9101        232
  11.9287        243
  11.9473        226
  11.9659        221
  11.9844        250
  12.0030        224
  12.0216        220
  12.0402        219
  12.0587        255
  12.0773        237
  12.0959        222
  12.1145        254
  12.1330        245
  12.1516        198
  12.1702        230
  12.1888        233
  12.2073        217
  12.2259        240
  12.2445        232
  12.2631        233
  12.2816        210
  12.3002        235
  12.3188        218
  12.3374        215
  12.3559        216
  12.3745        219
  12.3931        210
  12.4117        236
  12.4302        203
  12.4488        241
  12.4674        225
  12.4860        235
  12.5045        205
  12.5231        217
  12.5417        234
  12.5603        199
  12.5788        239
  12.5974        206
  12.6160        230
  12.6346        220
  12.6531        226
  12.6717        192
  12.6903        216
  12.7089        202
  12.7274        213
  12.7460        181
  12.7646        198
  12.7832        211
  12.8018        205
  12.8203        199
  12.8389        222
  12.8575        212
  12.8761        211
  12.8946        238
  12.9132        229
  12.9318        191
  12.9504        209
  12.9689        201
  12.9875        217
  13.0061        227
  13.0247        224
  13.0432        218
  13.0618        206
  13.0804        200
  13.0990        191
  13.1175        207
  13.1361        211
  13.1547        206
  13.1733        224
  13.1918        200
  13.2104        218
  13.2290        196
  13.2476        183
  13.2661        217
  13.2847        179
  13.3033        205
  13.3219        195
  13.3404        202
  13.3590        210
  13.3776        198
  13.3962        172
  13.4147        204
  13.4333        199
  13.4519        180
  13.4705        214
  13.4890        186
  13.5076        188
  13.5262        206
  13.5448        186
  13.5634        215
  13.5819        206
  13.6005        208
  13.6191        194
  13.6377        181
  13.6562        182
  13.6748        188
  13.6934        190
  13.7120        179
  13.7305        189
  13.7491        189
  13.7677        201
  13.7863        182
  13.8048        213
  13.8234        181
  13.8420        204
  13.8606        161
  13.8791        186
  13.8977        179
  13.9163        194
  13.9349        171
  13.9534        175
  13.9720        167
  13.9906        185
  14.0092        188
  14.0277        188
  14.0463        207
  14.0649        188
  14.0835        194
  14.1020        182
  14.1206        157
  14.1392        172
  14.1578        182
  14.1763        170
  14.1949        167
  14.2135        184
  14.2321        177
  14.2506        210
  14.2692        155
  14.2878        172
  14.3064        172
  14.3250        177
  14.3435        186
  14.3621        202
  14.3807        183
  14.3993        179
  14.4178        193
  14.4364        206
  14.4550        180
  14.4736        150
  14.4921        159
  14.5107        190
  14.5293        183
  14.5479        173
  14.5664        158
  14.5850        160
  14.6036        168
  14.6222        175
  14.6407        166
  14.6593        167
  14.6779        193
  14.6965        184
  14.7150        177
  14.7336        161
  14.7522        160
  14.7708        187
  14.7893        159
  14.8079        187
  14.8265        184
  14.8451        162
  14.8636        180
  14.8822        172
  14.9008        163
  14.9194        150
  14.9379        155
  14.9565        152
  14.9751        162
  14.9937        167
  15.0122        157
  15.0308        157
  15.0494        175
  15.0680        148
  15.0866        175
  15.1051        159
  15.1237        181
  15.1423        185
  15.1609        166
  15.1794        153
  15.1980        188
  15.2166        171
  15.2352        160
  15.2537        161
  15.2723        160
  15.2909        185
  15.3095        155
  15.3280        174
  15.3466        200
  15.3652        182
  15.3838        181
  15.4023        154
  15.4209        190
  15.4395        162
  15.4581        172
  15.4766        188
  15.4952        182
  15.5138        194
  15.5324        160
  15.5509        166
  15.5695        154
  15.5881        170
  15.6067        173
  15.6252        168
  15.6438        160
  15.6624        153
  15.6810        170
  15.6995        175
  15.7181        170
  15.7367        173
  15.7553        161
  15.7738        172
  15.7924        178
  15.8110        166
  15.8296        148
  15.8482        151
  15.8667        149
  15.8853        163
  15.9039        178
  15.9225        162
  15.9410        148
  15.9596        187
  15.9782        155
  15.9968        172
  16.0153        174
  16.0339        185
  16.0525        173
  16.0711        164
  16.0896        146
  16.1082        160
  16.1268        147
  16.1454        147
  16.1639        175
  16.1825        167
  16.2011        192
  16.2197        143
  16.2382        170
  16.2568        178
  16.2754        152
  16.2940        151
  16.3125        161
  16.3311        161
  16.3497        165
  16.3683        160
  16.3868        147
  16.4054        168
  16.4240        174
  16.4426        164
  16.4611        177
  16.4797        156
  16.4983        148
  16.5169        162
  16.5354        181
  16.5540        144
  16.5726        169
  16.5912        147
  16.6097        170
  16.6283        169
  16.6469        141
  16.6655        162
  16.6841        168
  16.7026        167
  16.7212        156
  16.7398        174
  16.7584        172
  16.7769        149
  16.7955        169
  16.8141        138
  16.8327        167
  16.8512        153
  16.8698        164
  16.8884        171
  16.9070        159
  16.9255        175
  16.9441        180
  16.9627        160
  16.9813        157
  16.9998        142
  17.0184        161
  17.0370        167
  17.0556        174
  17.0741        149
  17.0927        180
  17.1113        182
  17.1299        169
  17.1484        189
  17.1670        179
  17.1856        159
  17.2042        164
  17.2227        155
  17.2413        161
  17.2599        185
  17.2785        165
  17.2970        176
  17.3156        159
  17.3342        178
  17.3528        146
  17.3713        165
  17.3899        154
  17.4085        172
  17.4271        159
  17.4457        163
  17.4642        164
  17.4828        157
  17.5014        153
  17.5200        162
  17.5385        183
  17.5571        185
  17.5757        160
  17.5943        158
  17.6128        165
  17.6314        188
  17.6500        188
  17.6686        173
  17.6871        171
  17.7057        180
  17.7243        163
  17.7429        154
  17.7614        155
  17.7800        171
  17.7986        163
  17.8172        141
  17.8357        160
  17.8543        145
  17.8729        180
  17.8915        183
  17.9100        162
  17.9286        153
  17.9472        160
  17.9658        186
  17.9843        181
  18.0029        157
  18.0215        183
  18.0401        155
  18.0586        163
  18.0772        176
  18.0958        180
  18.1144        171
  18.1329        164
  18.1515        171
  18.1701        148
  18.1887        149
  18.2073        164
  18.2258        173
  18.2444        173
  18.2630        172
  18.2816        145
  18.3001        163
  18.3187        191
  18.3373        164
  18.3559        178
  18.3744        165
  18.3930        164
  18.4116        173
  18.4302        160
  18.4487        175
  18.4673        165
  18.4859        159
  18.5045        178
  18.5230        147
  18.5416        184
  18.5602        178
  18.5788        173
  18.5973        171
  18.6159        161
  18.6345        167
  18.6531        177
  18.6716        184
  18.6902        176
  18.7088        180
  18.7274        160
  18.7459        170
  18.7645        198
  18.7831        180
  18.8017        162
  18.8202        167
  18.8388        170
  18.8574        159
  18.8760        174
  18.8945        176
  18.9131        167
  18.9317        153
  18.9503        164
  18.9689        158
  18.9874        171
  19.0060        182
  19.0246        178
  19.0432        175
  19.0617        180
  19.0803        148
  19.0989        171
  19.1175        168
  19.1360        166
  19.1546        166
  19.1732        169
  19.1918        176
  19.2103        160
  19.2289        159
  19.2475        152
  19.2661        179
  19.2846        171
  19.3032        181
  19.3218        173
  19.3404        203
  19.3589        163
  19.3775        167
  19.3961        168
  19.4147        174
  19.4332        167
  19.4518        189
  19.4704        193
  19.4890        178
  19.5075        189
  19.5261        194
  19.5447        186
  19.5633        184
  19.5818        190
  19.6004        169
  19.6190        173
  19.6376        169
  19.6561        183
  19.6747        181
  19.6933        178
  19.7119        161
  19.7305        176
  19.7490        178
  19.7676        180
  19.7862        199
  19.8048        165
  19.8233        156
  19.8419        168
  19.8605        170
  19.8791        171
  19.8976        164
  19.9162        192
  19.9348        202
  19.9534        174
  19.9719        199
  19.9905        174
  20.0091        200
  20.0277        186
  20.0462        205
  20.0648        203
  20.0834        181
  20.1020        195
  20.1205        186
  20.1391        186
  20.1577        178
  20.1763        169
  20.1948        186
  20.2134        181
  20.2320        187
  20.2506        150
  20.2691        198
  20.2877        177
  20.3063        176
  20.3249        208
  20.3434        181
  20.3620        185
  20.3806        193
  20.3992        206
  20.4177        182
  20.4363        174
  20.4549        182
  20.4735        178
