; (content of file Y:\Sam\Apurva-07-20-2022\puck4\ML_20220718_58_SJD_4_LaB6-2min.raw)
_FILEVERSION = 3
_SAMPLE = ML_20220718_58_SJD_4_LaB6-2min
_+SAMPLE = 
_SITE = USA
_USER = Administrator
_GONIOMETER_CODE = 20
; Goniometer : D8 theta/2theta, stage : Unknown
_ATTACHMENTS_CODE = 0
_GONIOMETER_RADIUS = 200.5
_FIXED_DIVSLIT = 0.6
_FIXED_SAMPLESLIT = 0
_SOLLER_SLITS = 2
_FIXED_DETSLIT = 9.55
_MONOCHROMATOR = 0
; Incident beam monochromator : None
_SOLLER_SLITS_2 = N
_THIN_FILM = N
_BETA_FILTER = Y
_FIXED_ANTISLIT = 5.89
_ANALYZER_CODE = 0
; Received beam analyzer : None
_DATEMEASURED = "26-Jul-2022 12:46:46"
_WL_UNIT = A
_WL1 = 1.5406
_WL2 = 1.54439
_WL3 = 1.39222
_WLRATIO = 0.5
_ANODE = Cu
_V4_INF_CREATOR = XRDWizard
_V4_INF_CREATOR_VERSION = V2.9.0.22
_V4_INF_WIZARD_VERSION = V2.9.0.22
_V4_INF_WIZARD_ADDINS = V2.9.0.22
_V4_INF_WIZARD_DOCTYPE = XRD
_V4_INF_OSUSER = McQueenLab
_V4_INF_USER = Administrator
_V4_INF_SITE = USA
_V4_INF_SAMPLEID = ML_20220718_58_SJD_4_LaB6-2min

; Data for range 1
_DRIVE = COUPLED
_STEPTIME = 5.64
_STEPSIZE = 0.0185756
_STEPMODE = C
_START = 5
_THETA = 2.5
_2THETA = 5
_KHI = 0
_PHI = 0
_X = 0
_Y = 0
_Z = 0
_DETECTOR = 5
; Detector type : Unknown
_DETECTORSLIT = unkn
_AUX1 = 0
_AUX2 = 0
_AUX3 = 0
_TIMESTARTED = 14
_TEMP_RATE = -1
_TEMP_DELAY = -1
_KV = 40
_MA = 40
_RANGE_WL = 1.5406
_3DPLANE = 0
_V4_ADDITIONALDETECTOR = 257
_V4_PSD2THETA = 3.4183
_V4_PSDCHANNEL1 = 0
_V4_PSDAPERTURE = 12.68
_V4_PSDTYPE = 5
_V4_PSDFIXED = 0
_V4_COUNTERS_MASK = 4096
_V4_DRIVES_MASK = 0
_V4_ENCODERS_MASK = 0
_2THETACOUNTS = 1
; 2THETA  PSD
   5.0000        114
   5.0186        136
   5.0372        128
   5.0557        145
   5.0743        117
   5.0929        117
   5.1115        131
   5.1300        123
   5.1486        115
   5.1672        125
   5.1858        126
   5.2043        148
   5.2229        143
   5.2415        116
   5.2601        101
   5.2786        114
   5.2972        144
   5.3158        120
   5.3344        106
   5.3529        113
   5.3715        118
   5.3901        104
   5.4087        118
   5.4272        110
   5.4458        108
   5.4644        116
   5.4830        112
   5.5015        112
   5.5201        122
   5.5387        116
   5.5573        111
   5.5758        109
   5.5944        103
   5.6130        104
   5.6316        121
   5.6501        109
   5.6687        113
   5.6873        106
   5.7059        105
   5.7244        108
   5.7430        104
   5.7616        105
   5.7802        106
   5.7988        100
   5.8173        100
   5.8359        111
   5.8545        108
   5.8731         88
   5.8916         89
   5.9102        100
   5.9288         86
   5.9474        108
   5.9659        102
   5.9845        108
   6.0031         95
   6.0217        118
   6.0402         92
   6.0588        104
   6.0774         83
   6.0960         89
   6.1145         90
   6.1331         89
   6.1517         89
   6.1703         91
   6.1888         95
   6.2074         96
   6.2260        108
   6.2446         95
   6.2631        101
   6.2817        108
   6.3003         95
   6.3189         93
   6.3374        106
   6.3560         84
   6.3746         80
   6.3932         84
   6.4117         82
   6.4303         88
   6.4489         81
   6.4675         92
   6.4860         82
   6.5046         97
   6.5232         92
   6.5418         88
   6.5604         91
   6.5789         90
   6.5975         68
   6.6161         89
   6.6347         88
   6.6532         91
   6.6718         83
   6.6904         87
   6.7090        102
   6.7275         89
   6.7461        105
   6.7647         78
   6.7833         86
   6.8018         79
   6.8204         90
   6.8390         89
   6.8576         76
   6.8761         80
   6.8947         97
   6.9133         82
   6.9319         82
   6.9504         68
   6.9690         79
   6.9876         88
   7.0062         71
   7.0247         78
   7.0433         85
   7.0619         96
   7.0805         82
   7.0990         77
   7.1176         73
   7.1362         98
   7.1548         90
   7.1733         81
   7.1919         71
   7.2105         82
   7.2291         77
   7.2476         68
   7.2662         88
   7.2848         87
   7.3034         68
   7.3220         76
   7.3405         69
   7.3591         83
   7.3777         69
   7.3963         69
   7.4148         86
   7.4334         75
   7.4520         92
   7.4706         79
   7.4891         67
   7.5077         74
   7.5263         79
   7.5449         74
   7.5634         85
   7.5820         79
   7.6006         77
   7.6192         91
   7.6377         89
   7.6563         80
   7.6749         87
   7.6935         86
   7.7120         74
   7.7306        110
   7.7492         96
   7.7678         87
   7.7863         87
   7.8049         74
   7.8235         76
   7.8421         89
   7.8606         90
   7.8792         99
   7.8978         77
   7.9164         92
   7.9349         93
   7.9535         99
   7.9721         78
   7.9907         85
   8.0092         84
   8.0278         88
   8.0464         98
   8.0650         88
   8.0835         91
   8.1021         99
   8.1207         78
   8.1393         85
   8.1579         91
   8.1764         91
   8.1950         79
   8.2136         83
   8.2322         97
   8.2507         87
   8.2693         78
   8.2879         98
   8.3065        103
   8.3250         94
   8.3436         94
   8.3622         77
   8.3808         86
   8.3993        107
   8.4179        110
   8.4365         97
   8.4551        100
   8.4736         98
   8.4922         84
   8.5108         72
   8.5294         75
   8.5479         91
   8.5665         80
   8.5851         78
   8.6037         97
   8.6222         85
   8.6408         98
   8.6594        107
   8.6780        101
   8.6965        108
   8.7151         97
   8.7337         94
   8.7523        103
   8.7708        100
   8.7894        105
   8.8080        100
   8.8266        117
   8.8451        107
   8.8637        101
   8.8823         98
   8.9009        100
   8.9195        115
   8.9380        109
   8.9566        102
   8.9752        106
   8.9938        106
   9.0123         92
   9.0309        108
   9.0495        111
   9.0681         92
   9.0866        107
   9.1052        115
   9.1238        117
   9.1424        115
   9.1609        113
   9.1795         92
   9.1981        104
   9.2167        109
   9.2352        114
   9.2538        113
   9.2724        104
   9.2910        112
   9.3095        115
   9.3281        106
   9.3467        106
   9.3653        120
   9.3838        108
   9.4024        101
   9.4210         99
   9.4396        122
   9.4581        119
   9.4767        118
   9.4953         87
   9.5139        104
   9.5324        116
   9.5510        116
   9.5696         91
   9.5882         95
   9.6067        106
   9.6253        114
   9.6439        101
   9.6625        118
   9.6811        109
   9.6996        110
   9.7182        103
   9.7368        101
   9.7554        104
   9.7739        102
   9.7925        113
   9.8111        114
   9.8297        118
   9.8482        109
   9.8668        107
   9.8854        103
   9.9040        118
   9.9225        131
   9.9411         93
   9.9597        119
   9.9783        122
   9.9968        111
  10.0154        123
  10.0340        117
  10.0526        121
  10.0711        137
  10.0897        137
  10.1083        127
  10.1269        112
  10.1454        126
  10.1640        100
  10.1826        147
  10.2012        108
  10.2197        125
  10.2383        120
  10.2569        128
  10.2755        115
  10.2940        130
  10.3126        108
  10.3312        117
  10.3498        111
  10.3683        141
  10.3869        126
  10.4055        104
  10.4241        111
  10.4427        106
  10.4612        112
  10.4798        130
  10.4984        111
  10.5170        150
  10.5355        113
  10.5541        130
  10.5727        126
  10.5913        128
  10.6098        109
  10.6284        117
  10.6470        103
  10.6656        127
  10.6841        115
  10.7027        118
  10.7213        133
  10.7399        106
  10.7584        118
  10.7770        134
  10.7956        111
  10.8142        123
  10.8327        119
  10.8513        113
  10.8699        115
  10.8885        121
  10.9070        111
  10.9256        123
  10.9442        123
  10.9628        112
  10.9813        118
  10.9999        115
  11.0185        110
  11.0371        123
  11.0556        106
  11.0742        123
  11.0928        113
  11.1114        113
  11.1299        113
  11.1485        120
  11.1671        111
  11.1857        108
  11.2043        101
  11.2228        120
  11.2414        104
  11.2600        111
  11.2786        123
  11.2971        106
  11.3157        118
  11.3343        109
  11.3529        122
  11.3714        107
  11.3900        129
  11.4086        129
  11.4272        113
  11.4457        103
  11.4643        119
  11.4829        122
  11.5015        111
  11.5200         99
  11.5386        136
  11.5572        123
  11.5758        119
  11.5943         96
  11.6129        115
  11.6315        109
  11.6501        115
  11.6686        127
  11.6872        103
  11.7058        100
  11.7244        106
  11.7429        126
  11.7615        107
  11.7801        143
  11.7987        118
  11.8172        102
  11.8358        100
  11.8544        118
  11.8730        113
  11.8915        111
  11.9101        119
  11.9287         93
  11.9473        113
  11.9659        141
  11.9844        111
  12.0030        115
  12.0216        117
  12.0402         99
  12.0587        110
  12.0773        127
  12.0959         95
  12.1145        119
  12.1330        109
  12.1516        101
  12.1702        108
  12.1888        104
  12.2073        112
  12.2259        107
  12.2445         85
  12.2631         89
  12.2816        135
  12.3002        140
  12.3188        113
  12.3374         84
  12.3559        105
  12.3745        113
  12.3931        111
  12.4117        111
  12.4302        107
  12.4488         89
  12.4674        104
  12.4860         93
  12.5045        132
  12.5231         99
  12.5417         99
  12.5603        103
  12.5788         93
  12.5974        113
  12.6160        116
  12.6346        108
  12.6531        108
  12.6717        104
  12.6903        109
  12.7089        119
  12.7274         97
  12.7460        105
  12.7646        108
  12.7832         94
  12.8018         95
  12.8203        107
  12.8389        110
  12.8575         99
  12.8761        123
  12.8946        121
  12.9132         95
  12.9318        117
  12.9504         94
  12.9689        121
  12.9875        118
  13.0061        121
  13.0247        127
  13.0432        111
  13.0618         87
  13.0804        101
  13.0990        107
  13.1175        103
  13.1361         97
  13.1547         87
  13.1733        113
  13.1918         85
  13.2104         99
  13.2290        105
  13.2476         95
  13.2661        105
  13.2847         93
  13.3033        102
  13.3219        102
  13.3404         94
  13.3590         70
  13.3776         98
  13.3962         93
  13.4147        106
  13.4333        105
  13.4519         89
  13.4705         84
  13.4890         96
  13.5076         91
  13.5262         94
  13.5448         87
  13.5634        108
  13.5819         93
  13.6005         86
  13.6191         83
  13.6377         92
  13.6562        102
  13.6748         86
  13.6934         91
  13.7120        103
  13.7305         84
  13.7491         97
  13.7677         96
  13.7863        102
  13.8048         92
  13.8234        104
  13.8420         87
  13.8606         86
  13.8791         96
  13.8977         90
  13.9163         94
  13.9349         87
  13.9534         93
  13.9720        100
  13.9906         92
  14.0092        101
  14.0277         88
  14.0463         81
  14.0649         85
  14.0835         90
  14.1020         89
  14.1206        107
  14.1392         80
  14.1578        111
  14.1763         92
  14.1949         83
  14.2135         90
  14.2321         77
  14.2506         77
  14.2692         93
  14.2878         78
  14.3064         85
  14.3250         87
  14.3435         93
  14.3621         92
  14.3807         80
  14.3993         87
  14.4178         76
  14.4364         93
  14.4550         97
  14.4736         91
  14.4921         83
  14.5107         75
  14.5293         86
  14.5479         90
  14.5664         87
  14.5850         89
  14.6036         78
  14.6222         83
  14.6407         84
  14.6593        100
  14.6779         79
  14.6965         91
  14.7150         79
  14.7336         86
  14.7522         86
  14.7708         71
  14.7893         76
  14.8079        106
  14.8265         80
  14.8451         64
  14.8636         76
  14.8822         90
  14.9008         73
  14.9194         94
  14.9379         89
  14.9565        106
  14.9751         78
  14.9937         82
  15.0122         82
  15.0308         81
  15.0494         77
  15.0680         68
  15.0866         91
  15.1051         84
  15.1237         84
  15.1423         68
  15.1609         88
  15.1794         75
  15.1980         86
  15.2166         82
  15.2352         92
  15.2537         74
  15.2723         86
  15.2909         98
  15.3095         69
  15.3280         83
  15.3466         90
  15.3652         72
  15.3838         82
  15.4023         66
  15.4209         80
  15.4395         79
  15.4581         74
  15.4766         88
  15.4952         86
  15.5138         75
  15.5324         82
  15.5509         86
  15.5695         92
  15.5881         80
  15.6067         85
  15.6252         69
  15.6438         95
  15.6624         73
  15.6810         74
  15.6995         77
  15.7181         88
  15.7367         77
  15.7553         79
  15.7738         66
  15.7924         87
  15.8110         92
  15.8296         74
  15.8482         62
  15.8667         78
  15.8853         86
  15.9039         76
  15.9225         89
  15.9410         71
  15.9596         76
  15.9782         83
  15.9968         77
  16.0153         70
  16.0339         72
  16.0525         78
  16.0711         84
  16.0896         68
  16.1082         75
  16.1268         82
  16.1454         62
  16.1639         81
  16.1825         78
  16.2011         75
  16.2197         79
  16.2382         94
  16.2568         85
  16.2754         94
  16.2940        101
  16.3125         78
  16.3311        108
  16.3497         76
  16.3683         98
  16.3868         97
  16.4054         88
  16.4240         88
  16.4426         69
  16.4611         82
  16.4797         84
  16.4983         69
  16.5169         81
  16.5354         65
  16.5540         66
  16.5726        106
  16.5912         89
  16.6097         79
  16.6283         82
  16.6469         99
  16.6655         73
  16.6841         61
  16.7026         84
  16.7212         76
  16.7398         89
  16.7584         83
  16.7769         79
  16.7955         70
  16.8141         81
  16.8327         73
  16.8512         69
  16.8698         66
  16.8884         80
  16.9070         70
  16.9255         97
  16.9441         92
  16.9627         71
  16.9813         89
  16.9998         94
  17.0184         80
  17.0370         79
  17.0556         74
  17.0741         78
  17.0927         95
  17.1113         77
  17.1299         76
  17.1484         76
  17.1670         83
  17.1856         72
  17.2042         90
  17.2227         85
  17.2413         83
  17.2599         87
  17.2785         68
  17.2970         74
  17.3156         73
  17.3342         88
  17.3528         70
  17.3713         88
  17.3899         70
  17.4085         89
  17.4271         86
  17.4457         73
  17.4642         78
  17.4828         75
  17.5014         97
  17.5200         84
  17.5385         83
  17.5571         70
  17.5757         74
  17.5943         80
  17.6128         96
  17.6314         85
  17.6500         80
  17.6686         58
  17.6871         76
  17.7057         83
  17.7243         78
  17.7429         79
  17.7614         73
  17.7800         82
  17.7986         90
  17.8172         93
  17.8357         72
  17.8543         71
  17.8729         83
  17.8915         86
  17.9100         85
  17.9286         75
  17.9472         90
  17.9658         91
  17.9843         66
  18.0029         80
  18.0215         89
  18.0401         85
  18.0586         74
  18.0772         91
  18.0958         77
  18.1144         82
  18.1329         82
  18.1515         74
  18.1701         71
  18.1887         91
  18.2073         85
  18.2258         83
  18.2444         70
  18.2630         71
  18.2816         92
  18.3001         74
  18.3187         70
  18.3373         86
  18.3559         88
  18.3744         92
  18.3930         87
  18.4116         83
  18.4302         95
  18.4487         76
  18.4673         78
  18.4859         71
  18.5045         91
  18.5230         90
  18.5416         69
  18.5602         74
  18.5788         85
  18.5973         96
  18.6159         86
  18.6345         83
  18.6531         89
  18.6716         81
  18.6902         83
  18.7088         82
  18.7274         90
  18.7459         85
  18.7645         75
  18.7831         79
  18.8017         82
  18.8202         76
  18.8388        104
  18.8574         94
  18.8760         86
  18.8945        101
  18.9131         79
  18.9317        100
  18.9503         85
  18.9689         88
  18.9874         75
  19.0060         78
  19.0246         70
  19.0432         83
  19.0617         66
  19.0803         85
  19.0989         62
  19.1175         73
  19.1360        102
  19.1546         83
  19.1732        100
  19.1918         79
  19.2103         86
  19.2289         91
  19.2475         87
  19.2661         85
  19.2846         76
  19.3032         83
  19.3218         86
  19.3404         68
  19.3589         78
  19.3775         75
  19.3961         86
  19.4147         81
  19.4332         79
  19.4518         84
  19.4704        112
  19.4890         75
  19.5075        102
  19.5261         77
  19.5447         74
  19.5633         99
  19.5818         91
  19.6004         96
  19.6190         97
  19.6376         88
  19.6561        104
  19.6747         74
  19.6933         78
  19.7119        109
  19.7305        101
  19.7490         96
  19.7676         86
  19.7862         96
  19.8048        101
  19.8233         86
  19.8419         86
  19.8605         69
  19.8791         82
  19.8976         94
  19.9162         77
  19.9348         71
  19.9534         85
  19.9719         75
  19.9905         94
  20.0091         82
  20.0277         82
  20.0462         84
  20.0648         80
  20.0834         78
  20.1020         77
  20.1205        101
  20.1391         88
  20.1577         82
  20.1763         86
  20.1948         88
  20.2134         91
  20.2320         89
  20.2506         84
  20.2691        101
  20.2877         81
  20.3063         90
  20.3249         99
  20.3434         89
  20.3620         83
  20.3806        101
  20.3992         94
  20.4177         82
  20.4363         89
  20.4549         95
  20.4735        105
