; (content of file Y:\Sam\Apurva-07-20-2022\puck1\ML_20220721_14_SJD_0_LaB6-4min.raw)
_FILEVERSION = 3
_SAMPLE = ML_20220721_14_SJD_0_LaB6-4min
_+SAMPLE = 
_SITE = USA
_USER = Administrator
_GONIOMETER_CODE = 20
; Goniometer : D8 theta/2theta, stage : Unknown
_ATTACHMENTS_CODE = 0
_GONIOMETER_RADIUS = 200.5
_FIXED_DIVSLIT = 0.6
_FIXED_SAMPLESLIT = 0
_SOLLER_SLITS = 2
_FIXED_DETSLIT = 9.55
_MONOCHROMATOR = 0
; Incident beam monochromator : None
_SOLLER_SLITS_2 = N
_THIN_FILM = N
_BETA_FILTER = Y
_FIXED_ANTISLIT = 5.89
_ANALYZER_CODE = 0
; Received beam analyzer : None
_DATEMEASURED = "25-Jul-2022 14:55:21"
_WL_UNIT = A
_WL1 = 1.5406
_WL2 = 1.54439
_WL3 = 1.39222
_WLRATIO = 0.5
_ANODE = Cu
_V4_INF_CREATOR = XRDWizard
_V4_INF_CREATOR_VERSION = V2.9.0.22
_V4_INF_WIZARD_VERSION = V2.9.0.22
_V4_INF_WIZARD_ADDINS = V2.9.0.22
_V4_INF_WIZARD_DOCTYPE = XRD
_V4_INF_OSUSER = McQueenLab
_V4_INF_USER = Administrator
_V4_INF_SITE = USA
_V4_INF_SAMPLEID = ML_20220721_14_SJD_0_LaB6-4min

; Data for range 1
_DRIVE = COUPLED
_STEPTIME = 11.28
_STEPSIZE = 0.0185756
_STEPMODE = C
_START = 5
_THETA = 2.5
_2THETA = 5
_KHI = 0
_PHI = 0
_X = 0
_Y = 0
_Z = 0
_DETECTOR = 5
; Detector type : Unknown
_DETECTORSLIT = unkn
_AUX1 = 0
_AUX2 = 0
_AUX3 = 0
_TIMESTARTED = 15
_TEMP_RATE = -1
_TEMP_DELAY = -1
_KV = 40
_MA = 40
_RANGE_WL = 1.5406
_3DPLANE = 0
_V4_ADDITIONALDETECTOR = 257
_V4_PSD2THETA = 3.3888
_V4_PSDCHANNEL1 = 0
_V4_PSDAPERTURE = 12.68
_V4_PSDTYPE = 5
_V4_PSDFIXED = 0
_V4_COUNTERS_MASK = 4096
_V4_DRIVES_MASK = 0
_V4_ENCODERS_MASK = 0
_2THETACOUNTS = 1
; 2THETA  PSD
   5.0000        285
   5.0186        277
   5.0372        276
   5.0557        264
   5.0743        263
   5.0929        267
   5.1115        250
   5.1300        252
   5.1486        267
   5.1672        277
   5.1858        240
   5.2043        241
   5.2229        255
   5.2415        257
   5.2601        275
   5.2786        276
   5.2972        229
   5.3158        259
   5.3344        253
   5.3529        245
   5.3715        229
   5.3901        215
   5.4087        224
   5.4272        230
   5.4458        232
   5.4644        239
   5.4830        257
   5.5015        229
   5.5201        208
   5.5387        242
   5.5573        192
   5.5758        217
   5.5944        227
   5.6130        237
   5.6316        222
   5.6501        229
   5.6687        208
   5.6873        211
   5.7059        221
   5.7244        223
   5.7430        225
   5.7616        212
   5.7802        195
   5.7988        241
   5.8173        220
   5.8359        238
   5.8545        193
   5.8731        215
   5.8916        221
   5.9102        207
   5.9288        235
   5.9474        208
   5.9659        248
   5.9845        202
   6.0031        194
   6.0217        181
   6.0402        185
   6.0588        189
   6.0774        209
   6.0960        208
   6.1145        168
   6.1331        197
   6.1517        214
   6.1703        189
   6.1888        183
   6.2074        196
   6.2260        179
   6.2446        178
   6.2631        172
   6.2817        185
   6.3003        197
   6.3189        180
   6.3374        161
   6.3560        177
   6.3746        176
   6.3932        181
   6.4117        166
   6.4303        172
   6.4489        173
   6.4675        174
   6.4860        206
   6.5046        174
   6.5232        175
   6.5418        176
   6.5604        190
   6.5789        170
   6.5975        185
   6.6161        168
   6.6347        169
   6.6532        153
   6.6718        146
   6.6904        185
   6.7090        178
   6.7275        183
   6.7461        180
   6.7647        196
   6.7833        177
   6.8018        162
   6.8204        178
   6.8390        176
   6.8576        175
   6.8761        192
   6.8947        178
   6.9133        166
   6.9319        169
   6.9504        150
   6.9690        154
   6.9876        156
   7.0062        170
   7.0247        164
   7.0433        182
   7.0619        182
   7.0805        199
   7.0990        166
   7.1176        157
   7.1362        152
   7.1548        175
   7.1733        187
   7.1919        147
   7.2105        179
   7.2291        165
   7.2476        159
   7.2662        149
   7.2848        147
   7.3034        152
   7.3220        144
   7.3405        166
   7.3591        170
   7.3777        140
   7.3963        148
   7.4148        169
   7.4334        178
   7.4520        169
   7.4706        163
   7.4891        162
   7.5077        176
   7.5263        162
   7.5449        152
   7.5634        157
   7.5820        153
   7.6006        184
   7.6192        147
   7.6377        197
   7.6563        180
   7.6749        187
   7.6935        183
   7.7120        177
   7.7306        150
   7.7492        186
   7.7678        160
   7.7863        172
   7.8049        159
   7.8235        181
   7.8421        174
   7.8606        183
   7.8792        163
   7.8978        200
   7.9164        183
   7.9349        148
   7.9535        170
   7.9721        194
   7.9907        177
   8.0092        189
   8.0278        196
   8.0464        203
   8.0650        187
   8.0835        185
   8.1021        170
   8.1207        170
   8.1393        175
   8.1579        190
   8.1764        173
   8.1950        174
   8.2136        185
   8.2322        169
   8.2507        190
   8.2693        187
   8.2879        192
   8.3065        191
   8.3250        197
   8.3436        186
   8.3622        202
   8.3808        207
   8.3993        171
   8.4179        186
   8.4365        204
   8.4551        211
   8.4736        205
   8.4922        199
   8.5108        192
   8.5294        213
   8.5479        196
   8.5665        206
   8.5851        205
   8.6037        185
   8.6222        190
   8.6408        189
   8.6594        179
   8.6780        187
   8.6965        208
   8.7151        198
   8.7337        225
   8.7523        214
   8.7708        197
   8.7894        199
   8.8080        248
   8.8266        211
   8.8451        199
   8.8637        207
   8.8823        214
   8.9009        239
   8.9195        210
   8.9380        225
   8.9566        219
   8.9752        210
   8.9938        218
   9.0123        205
   9.0309        209
   9.0495        217
   9.0681        197
   9.0866        227
   9.1052        222
   9.1238        210
   9.1424        205
   9.1609        217
   9.1795        214
   9.1981        242
   9.2167        204
   9.2352        208
   9.2538        245
   9.2724        228
   9.2910        241
   9.3095        229
   9.3281        244
   9.3467        214
   9.3653        208
   9.3838        212
   9.4024        225
   9.4210        216
   9.4396        236
   9.4581        219
   9.4767        214
   9.4953        214
   9.5139        213
   9.5324        222
   9.5510        207
   9.5696        199
   9.5882        209
   9.6067        270
   9.6253        236
   9.6439        219
   9.6625        232
   9.6811        224
   9.6996        227
   9.7182        242
   9.7368        255
   9.7554        221
   9.7739        245
   9.7925        240
   9.8111        270
   9.8297        262
   9.8482        268
   9.8668        243
   9.8854        256
   9.9040        232
   9.9225        251
   9.9411        232
   9.9597        260
   9.9783        283
   9.9968        258
  10.0154        230
  10.0340        255
  10.0526        219
  10.0711        256
  10.0897        233
  10.1083        248
  10.1269        252
  10.1454        262
  10.1640        245
  10.1826        246
  10.2012        239
  10.2197        224
  10.2383        241
  10.2569        246
  10.2755        245
  10.2940        224
  10.3126        239
  10.3312        256
  10.3498        245
  10.3683        234
  10.3869        224
  10.4055        264
  10.4241        238
  10.4427        238
  10.4612        240
  10.4798        240
  10.4984        208
  10.5170        239
  10.5355        252
  10.5541        232
  10.5727        237
  10.5913        235
  10.6098        215
  10.6284        223
  10.6470        240
  10.6656        262
  10.6841        251
  10.7027        254
  10.7213        241
  10.7399        230
  10.7584        279
  10.7770        262
  10.7956        243
  10.8142        238
  10.8327        259
  10.8513        256
  10.8699        247
  10.8885        231
  10.9070        243
  10.9256        249
  10.9442        224
  10.9628        220
  10.9813        242
  10.9999        230
  11.0185        260
  11.0371        260
  11.0556        254
  11.0742        243
  11.0928        238
  11.1114        240
  11.1299        222
  11.1485        236
  11.1671        255
  11.1857        213
  11.2043        243
  11.2228        222
  11.2414        239
  11.2600        220
  11.2786        239
  11.2971        267
  11.3157        257
  11.3343        230
  11.3529        234
  11.3714        231
  11.3900        241
  11.4086        222
  11.4272        254
  11.4457        233
  11.4643        261
  11.4829        249
  11.5015        250
  11.5200        265
  11.5386        278
  11.5572        240
  11.5758        223
  11.5943        250
  11.6129        247
  11.6315        240
  11.6501        236
  11.6686        233
  11.6872        233
  11.7058        254
  11.7244        220
  11.7429        241
  11.7615        229
  11.7801        227
  11.7987        245
  11.8172        251
  11.8358        228
  11.8544        246
  11.8730        241
  11.8915        219
  11.9101        225
  11.9287        250
  11.9473        245
  11.9659        208
  11.9844        221
  12.0030        243
  12.0216        245
  12.0402        241
  12.0587        239
  12.0773        228
  12.0959        254
  12.1145        225
  12.1330        221
  12.1516        231
  12.1702        249
  12.1888        222
  12.2073        234
  12.2259        229
  12.2445        236
  12.2631        223
  12.2816        232
  12.3002        220
  12.3188        202
  12.3374        213
  12.3559        211
  12.3745        237
  12.3931        198
  12.4117        187
  12.4302        197
  12.4488        221
  12.4674        232
  12.4860        228
  12.5045        213
  12.5231        234
  12.5417        232
  12.5603        222
  12.5788        227
  12.5974        210
  12.6160        210
  12.6346        213
  12.6531        235
  12.6717        238
  12.6903        184
  12.7089        200
  12.7274        202
  12.7460        231
  12.7646        225
  12.7832        179
  12.8018        222
  12.8203        216
  12.8389        248
  12.8575        194
  12.8761        226
  12.8946        202
  12.9132        204
  12.9318        219
  12.9504        205
  12.9689        189
  12.9875        224
  13.0061        211
  13.0247        197
  13.0432        198
  13.0618        229
  13.0804        213
  13.0990        200
  13.1175        200
  13.1361        220
  13.1547        226
  13.1733        192
  13.1918        192
  13.2104        201
  13.2290        193
  13.2476        225
  13.2661        223
  13.2847        189
  13.3033        198
  13.3219        221
  13.3404        212
  13.3590        213
  13.3776        207
  13.3962        180
  13.4147        210
  13.4333        187
  13.4519        203
  13.4705        198
  13.4890        195
  13.5076        155
  13.5262        191
  13.5448        194
  13.5634        169
  13.5819        192
  13.6005        189
  13.6191        188
  13.6377        182
  13.6562        204
  13.6748        221
  13.6934        189
  13.7120        178
  13.7305        195
  13.7491        186
  13.7677        188
  13.7863        193
  13.8048        203
  13.8234        193
  13.8420        203
  13.8606        193
  13.8791        161
  13.8977        188
  13.9163        207
  13.9349        187
  13.9534        187
  13.9720        184
  13.9906        211
  14.0092        197
  14.0277        189
  14.0463        183
  14.0649        198
  14.0835        192
  14.1020        168
  14.1206        188
  14.1392        175
  14.1578        209
  14.1763        194
  14.1949        173
  14.2135        176
  14.2321        181
  14.2506        169
  14.2692        214
  14.2878        197
  14.3064        179
  14.3250        158
  14.3435        190
  14.3621        190
  14.3807        188
  14.3993        179
  14.4178        164
  14.4364        198
  14.4550        170
  14.4736        180
  14.4921        147
  14.5107        179
  14.5293        175
  14.5479        167
  14.5664        199
  14.5850        161
  14.6036        191
  14.6222        183
  14.6407        164
  14.6593        162
  14.6779        174
  14.6965        192
  14.7150        172
  14.7336        153
  14.7522        148
  14.7708        165
  14.7893        160
  14.8079        170
  14.8265        157
  14.8451        163
  14.8636        184
  14.8822        173
  14.9008        148
  14.9194        168
  14.9379        168
  14.9565        170
  14.9751        157
  14.9937        172
  15.0122        185
  15.0308        164
  15.0494        146
  15.0680        165
  15.0866        174
  15.1051        163
  15.1237        152
  15.1423        163
  15.1609        163
  15.1794        162
  15.1980        136
  15.2166        150
  15.2352        185
  15.2537        161
  15.2723        177
  15.2909        153
  15.3095        167
  15.3280        170
  15.3466        164
  15.3652        160
  15.3838        166
  15.4023        154
  15.4209        172
  15.4395        135
  15.4581        167
  15.4766        174
  15.4952        170
  15.5138        137
  15.5324        152
  15.5509        153
  15.5695        159
  15.5881        144
  15.6067        173
  15.6252        173
  15.6438        194
  15.6624        191
  15.6810        170
  15.6995        173
  15.7181        161
  15.7367        165
  15.7553        168
  15.7738        181
  15.7924        173
  15.8110        165
  15.8296        166
  15.8482        143
  15.8667        166
  15.8853        166
  15.9039        194
  15.9225        139
  15.9410        156
  15.9596        166
  15.9782        160
  15.9968        162
  16.0153        167
  16.0339        173
  16.0525        194
  16.0711        151
  16.0896        156
  16.1082        168
  16.1268        173
  16.1454        160
  16.1639        161
  16.1825        159
  16.2011        169
  16.2197        163
  16.2382        166
  16.2568        161
  16.2754        136
  16.2940        164
  16.3125        163
  16.3311        150
  16.3497        152
  16.3683        159
  16.3868        169
  16.4054        164
  16.4240        155
  16.4426        163
  16.4611        159
  16.4797        164
  16.4983        166
  16.5169        143
  16.5354        165
  16.5540        160
  16.5726        168
  16.5912        175
  16.6097        167
  16.6283        156
  16.6469        176
  16.6655        172
  16.6841        130
  16.7026        150
  16.7212        152
  16.7398        156
  16.7584        153
  16.7769        162
  16.7955        153
  16.8141        170
  16.8327        206
  16.8512        182
  16.8698        154
  16.8884        159
  16.9070        152
  16.9255        182
  16.9441        176
  16.9627        186
  16.9813        166
  16.9998        162
  17.0184        150
  17.0370        155
  17.0556        153
  17.0741        133
  17.0927        179
  17.1113        153
  17.1299        169
  17.1484        151
  17.1670        170
  17.1856        195
  17.2042        183
  17.2227        155
  17.2413        159
  17.2599        172
  17.2785        183
  17.2970        170
  17.3156        161
  17.3342        161
  17.3528        149
  17.3713        170
  17.3899        169
  17.4085        162
  17.4271        156
  17.4457        155
  17.4642        169
  17.4828        158
  17.5014        164
  17.5200        174
  17.5385        165
  17.5571        155
  17.5757        181
  17.5943        144
  17.6128        171
  17.6314        159
  17.6500        168
  17.6686        164
  17.6871        178
  17.7057        166
  17.7243        169
  17.7429        175
  17.7614        144
  17.7800        167
  17.7986        163
  17.8172        167
  17.8357        165
  17.8543        151
  17.8729        168
  17.8915        145
  17.9100        193
  17.9286        128
  17.9472        169
  17.9658        172
  17.9843        168
  18.0029        184
  18.0215        171
  18.0401        175
  18.0586        166
  18.0772        189
  18.0958        174
  18.1144        175
  18.1329        137
  18.1515        171
  18.1701        193
  18.1887        197
  18.2073        191
  18.2258        175
  18.2444        179
  18.2630        167
  18.2816        166
  18.3001        169
  18.3187        148
  18.3373        152
  18.3559        162
  18.3744        169
  18.3930        173
  18.4116        171
  18.4302        167
  18.4487        151
  18.4673        155
  18.4859        172
  18.5045        188
  18.5230        154
  18.5416        168
  18.5602        180
  18.5788        180
  18.5973        175
  18.6159        163
  18.6345        167
  18.6531        172
  18.6716        185
  18.6902        176
  18.7088        149
  18.7274        184
  18.7459        168
  18.7645        156
  18.7831        158
  18.8017        168
  18.8202        184
  18.8388        163
  18.8574        187
  18.8760        165
  18.8945        168
  18.9131        187
  18.9317        159
  18.9503        164
  18.9689        155
  18.9874        195
  19.0060        160
  19.0246        140
  19.0432        179
  19.0617        185
  19.0803        194
  19.0989        178
  19.1175        156
  19.1360        175
  19.1546        209
  19.1732        185
  19.1918        179
  19.2103        164
  19.2289        170
  19.2475        171
  19.2661        198
  19.2846        177
  19.3032        172
  19.3218        171
  19.3404        203
  19.3589        190
  19.3775        146
  19.3961        156
  19.4147        171
  19.4332        183
  19.4518        172
  19.4704        162
  19.4890        182
  19.5075        183
  19.5261        191
  19.5447        181
  19.5633        171
  19.5818        140
  19.6004        167
  19.6190        179
  19.6376        178
  19.6561        166
  19.6747        166
  19.6933        177
  19.7119        207
  19.7305        201
  19.7490        173
  19.7676        164
  19.7862        172
  19.8048        181
  19.8233        179
  19.8419        160
  19.8605        156
  19.8791        175
  19.8976        162
  19.9162        176
  19.9348        195
  19.9534        162
  19.9719        175
  19.9905        185
  20.0091        176
  20.0277        195
  20.0462        171
  20.0648        190
  20.0834        192
  20.1020        193
  20.1205        152
  20.1391        211
  20.1577        177
  20.1763        159
  20.1948        157
  20.2134        179
  20.2320        219
  20.2506        179
  20.2691        185
  20.2877        192
  20.3063        171
  20.3249        190
  20.3434        178
  20.3620        192
  20.3806        172
  20.3992        200
  20.4177        197
  20.4363        178
  20.4549        177
  20.4735        176
