; (content of file Y:\Sam\Apurva-07-20-2022\puck4\ML_20220718_55_SJD_4_LaB6-4min.raw)
_FILEVERSION = 3
_SAMPLE = ML_20220718_55_SJD_4_LaB6-4min
_+SAMPLE = 
_SITE = USA
_USER = Administrator
_GONIOMETER_CODE = 20
; Goniometer : D8 theta/2theta, stage : Unknown
_ATTACHMENTS_CODE = 0
_GONIOMETER_RADIUS = 200.5
_FIXED_DIVSLIT = 0.6
_FIXED_SAMPLESLIT = 0
_SOLLER_SLITS = 2
_FIXED_DETSLIT = 9.55
_MONOCHROMATOR = 0
; Incident beam monochromator : None
_SOLLER_SLITS_2 = N
_THIN_FILM = N
_BETA_FILTER = Y
_FIXED_ANTISLIT = 5.89
_ANALYZER_CODE = 0
; Received beam analyzer : None
_DATEMEASURED = "26-Jul-2022 14:23:10"
_WL_UNIT = A
_WL1 = 1.5406
_WL2 = 1.54439
_WL3 = 1.39222
_WLRATIO = 0.5
_ANODE = Cu
_V4_INF_CREATOR = XRDWizard
_V4_INF_CREATOR_VERSION = V2.9.0.22
_V4_INF_WIZARD_VERSION = V2.9.0.22
_V4_INF_WIZARD_ADDINS = V2.9.0.22
_V4_INF_WIZARD_DOCTYPE = XRD
_V4_INF_OSUSER = McQueenLab
_V4_INF_USER = Administrator
_V4_INF_SITE = USA
_V4_INF_SAMPLEID = ML_20220718_55_SJD_4_LaB6-4min

; Data for range 1
_DRIVE = COUPLED
_STEPTIME = 11.28
_STEPSIZE = 0.0185756
_STEPMODE = C
_START = 5
_THETA = 2.5
_2THETA = 5
_KHI = 0
_PHI = 0
_X = 0
_Y = 0
_Z = 0
_DETECTOR = 5
; Detector type : Unknown
_DETECTORSLIT = unkn
_AUX1 = 0
_AUX2 = 0
_AUX3 = 0
_TIMESTARTED = 15
_TEMP_RATE = -1
_TEMP_DELAY = -1
_KV = 40
_MA = 40
_RANGE_WL = 1.5406
_3DPLANE = 0
_V4_ADDITIONALDETECTOR = 257
_V4_PSD2THETA = 3.3876
_V4_PSDCHANNEL1 = 0
_V4_PSDAPERTURE = 12.68
_V4_PSDTYPE = 5
_V4_PSDFIXED = 0
_V4_COUNTERS_MASK = 4096
_V4_DRIVES_MASK = 0
_V4_ENCODERS_MASK = 0
_2THETACOUNTS = 1
; 2THETA  PSD
   5.0000        225
   5.0186        270
   5.0372        247
   5.0557        231
   5.0743        232
   5.0929        278
   5.1115        238
   5.1300        262
   5.1486        222
   5.1672        249
   5.1858        258
   5.2043        245
   5.2229        230
   5.2415        225
   5.2601        260
   5.2786        228
   5.2972        245
   5.3158        250
   5.3344        260
   5.3529        220
   5.3715        219
   5.3901        231
   5.4087        251
   5.4272        219
   5.4458        236
   5.4644        243
   5.4830        198
   5.5015        223
   5.5201        234
   5.5387        199
   5.5573        213
   5.5758        240
   5.5944        235
   5.6130        202
   5.6316        222
   5.6501        222
   5.6687        193
   5.6873        202
   5.7059        228
   5.7244        211
   5.7430        203
   5.7616        228
   5.7802        210
   5.7988        197
   5.8173        197
   5.8359        209
   5.8545        180
   5.8731        199
   5.8916        204
   5.9102        197
   5.9288        184
   5.9474        207
   5.9659        217
   5.9845        195
   6.0031        192
   6.0217        212
   6.0402        191
   6.0588        210
   6.0774        181
   6.0960        171
   6.1145        199
   6.1331        187
   6.1517        220
   6.1703        192
   6.1888        194
   6.2074        179
   6.2260        186
   6.2446        199
   6.2631        192
   6.2817        187
   6.3003        211
   6.3189        180
   6.3374        174
   6.3560        180
   6.3746        179
   6.3932        164
   6.4117        170
   6.4303        186
   6.4489        185
   6.4675        162
   6.4860        154
   6.5046        179
   6.5232        181
   6.5418        157
   6.5604        192
   6.5789        155
   6.5975        189
   6.6161        173
   6.6347        171
   6.6532        177
   6.6718        183
   6.6904        192
   6.7090        166
   6.7275        169
   6.7461        175
   6.7647        165
   6.7833        165
   6.8018        150
   6.8204        174
   6.8390        166
   6.8576        158
   6.8761        179
   6.8947        167
   6.9133        166
   6.9319        163
   6.9504        173
   6.9690        154
   6.9876        170
   7.0062        152
   7.0247        193
   7.0433        172
   7.0619        146
   7.0805        174
   7.0990        161
   7.1176        154
   7.1362        152
   7.1548        155
   7.1733        161
   7.1919        162
   7.2105        156
   7.2291        170
   7.2476        166
   7.2662        131
   7.2848        158
   7.3034        152
   7.3220        157
   7.3405        162
   7.3591        151
   7.3777        176
   7.3963        152
   7.4148        169
   7.4334        167
   7.4520        164
   7.4706        159
   7.4891        153
   7.5077        180
   7.5263        146
   7.5449        170
   7.5634        155
   7.5820        161
   7.6006        177
   7.6192        159
   7.6377        183
   7.6563        181
   7.6749        153
   7.6935        150
   7.7120        191
   7.7306        158
   7.7492        170
   7.7678        150
   7.7863        169
   7.8049        176
   7.8235        164
   7.8421        204
   7.8606        188
   7.8792        160
   7.8978        171
   7.9164        188
   7.9349        198
   7.9535        184
   7.9721        174
   7.9907        170
   8.0092        234
   8.0278        185
   8.0464        211
   8.0650        171
   8.0835        187
   8.1021        193
   8.1207        211
   8.1393        194
   8.1579        183
   8.1764        186
   8.1950        177
   8.2136        180
   8.2322        210
   8.2507        190
   8.2693        183
   8.2879        191
   8.3065        211
   8.3250        205
   8.3436        192
   8.3622        215
   8.3808        186
   8.3993        185
   8.4179        180
   8.4365        185
   8.4551        214
   8.4736        200
   8.4922        213
   8.5108        197
   8.5294        183
   8.5479        194
   8.5665        212
   8.5851        220
   8.6037        192
   8.6222        191
   8.6408        199
   8.6594        216
   8.6780        196
   8.6965        209
   8.7151        195
   8.7337        202
   8.7523        203
   8.7708        213
   8.7894        209
   8.8080        216
   8.8266        184
   8.8451        201
   8.8637        204
   8.8823        206
   8.9009        226
   8.9195        220
   8.9380        213
   8.9566        192
   8.9752        214
   8.9938        200
   9.0123        191
   9.0309        196
   9.0495        202
   9.0681        206
   9.0866        206
   9.1052        237
   9.1238        235
   9.1424        204
   9.1609        203
   9.1795        206
   9.1981        252
   9.2167        220
   9.2352        235
   9.2538        220
   9.2724        227
   9.2910        180
   9.3095        208
   9.3281        215
   9.3467        229
   9.3653        219
   9.3838        209
   9.4024        215
   9.4210        217
   9.4396        200
   9.4581        224
   9.4767        198
   9.4953        226
   9.5139        237
   9.5324        215
   9.5510        239
   9.5696        227
   9.5882        203
   9.6067        226
   9.6253        213
   9.6439        225
   9.6625        221
   9.6811        211
   9.6996        218
   9.7182        233
   9.7368        221
   9.7554        237
   9.7739        232
   9.7925        229
   9.8111        227
   9.8297        244
   9.8482        233
   9.8668        253
   9.8854        190
   9.9040        270
   9.9225        218
   9.9411        210
   9.9597        246
   9.9783        248
   9.9968        261
  10.0154        227
  10.0340        241
  10.0526        236
  10.0711        233
  10.0897        232
  10.1083        259
  10.1269        263
  10.1454        219
  10.1640        227
  10.1826        262
  10.2012        231
  10.2197        256
  10.2383        232
  10.2569        234
  10.2755        224
  10.2940        210
  10.3126        244
  10.3312        243
  10.3498        239
  10.3683        225
  10.3869        250
  10.4055        260
  10.4241        246
  10.4427        257
  10.4612        242
  10.4798        209
  10.4984        231
  10.5170        234
  10.5355        267
  10.5541        234
  10.5727        255
  10.5913        245
  10.6098        256
  10.6284        253
  10.6470        230
  10.6656        221
  10.6841        225
  10.7027        252
  10.7213        260
  10.7399        236
  10.7584        241
  10.7770        246
  10.7956        253
  10.8142        233
  10.8327        203
  10.8513        243
  10.8699        255
  10.8885        244
  10.9070        246
  10.9256        246
  10.9442        231
  10.9628        238
  10.9813        233
  10.9999        259
  11.0185        249
  11.0371        206
  11.0556        256
  11.0742        249
  11.0928        231
  11.1114        238
  11.1299        236
  11.1485        222
  11.1671        232
  11.1857        215
  11.2043        258
  11.2228        222
  11.2414        263
  11.2600        246
  11.2786        227
  11.2971        240
  11.3157        246
  11.3343        221
  11.3529        221
  11.3714        245
  11.3900        243
  11.4086        229
  11.4272        235
  11.4457        197
  11.4643        229
  11.4829        229
  11.5015        230
  11.5200        237
  11.5386        217
  11.5572        243
  11.5758        240
  11.5943        250
  11.6129        240
  11.6315        234
  11.6501        211
  11.6686        232
  11.6872        238
  11.7058        229
  11.7244        266
  11.7429        221
  11.7615        232
  11.7801        207
  11.7987        220
  11.8172        225
  11.8358        218
  11.8544        229
  11.8730        229
  11.8915        244
  11.9101        230
  11.9287        249
  11.9473        245
  11.9659        217
  11.9844        203
  12.0030        245
  12.0216        242
  12.0402        225
  12.0587        243
  12.0773        227
  12.0959        242
  12.1145        232
  12.1330        221
  12.1516        233
  12.1702        216
  12.1888        203
  12.2073        211
  12.2259        209
  12.2445        237
  12.2631        200
  12.2816        221
  12.3002        227
  12.3188        235
  12.3374        215
  12.3559        247
  12.3745        212
  12.3931        226
  12.4117        215
  12.4302        217
  12.4488        209
  12.4674        244
  12.4860        223
  12.5045        226
  12.5231        224
  12.5417        194
  12.5603        208
  12.5788        202
  12.5974        223
  12.6160        217
  12.6346        200
  12.6531        223
  12.6717        207
  12.6903        240
  12.7089        221
  12.7274        198
  12.7460        218
  12.7646        219
  12.7832        207
  12.8018        192
  12.8203        222
  12.8389        222
  12.8575        192
  12.8761        216
  12.8946        230
  12.9132        196
  12.9318        210
  12.9504        207
  12.9689        220
  12.9875        207
  13.0061        195
  13.0247        199
  13.0432        196
  13.0618        217
  13.0804        213
  13.0990        220
  13.1175        210
  13.1361        216
  13.1547        197
  13.1733        195
  13.1918        210
  13.2104        172
  13.2290        200
  13.2476        225
  13.2661        183
  13.2847        215
  13.3033        200
  13.3219        206
  13.3404        176
  13.3590        195
  13.3776        208
  13.3962        189
  13.4147        202
  13.4333        193
  13.4519        189
  13.4705        195
  13.4890        188
  13.5076        194
  13.5262        204
  13.5448        197
  13.5634        192
  13.5819        216
  13.6005        208
  13.6191        204
  13.6377        161
  13.6562        216
  13.6748        196
  13.6934        191
  13.7120        166
  13.7305        185
  13.7491        172
  13.7677        187
  13.7863        168
  13.8048        195
  13.8234        169
  13.8420        174
  13.8606        158
  13.8791        172
  13.8977        193
  13.9163        196
  13.9349        210
  13.9534        184
  13.9720        174
  13.9906        166
  14.0092        198
  14.0277        179
  14.0463        172
  14.0649        194
  14.0835        193
  14.1020        169
  14.1206        177
  14.1392        200
  14.1578        205
  14.1763        152
  14.1949        182
  14.2135        177
  14.2321        176
  14.2506        187
  14.2692        179
  14.2878        184
  14.3064        176
  14.3250        193
  14.3435        174
  14.3621        171
  14.3807        183
  14.3993        174
  14.4178        176
  14.4364        174
  14.4550        178
  14.4736        166
  14.4921        199
  14.5107        183
  14.5293        184
  14.5479        181
  14.5664        167
  14.5850        186
  14.6036        179
  14.6222        188
  14.6407        196
  14.6593        185
  14.6779        158
  14.6965        144
  14.7150        184
  14.7336        193
  14.7522        173
  14.7708        155
  14.7893        179
  14.8079        175
  14.8265        192
  14.8451        185
  14.8636        184
  14.8822        174
  14.9008        163
  14.9194        176
  14.9379        145
  14.9565        152
  14.9751        165
  14.9937        160
  15.0122        176
  15.0308        168
  15.0494        157
  15.0680        152
  15.0866        173
  15.1051        188
  15.1237        152
  15.1423        173
  15.1609        189
  15.1794        154
  15.1980        171
  15.2166        169
  15.2352        161
  15.2537        165
  15.2723        169
  15.2909        160
  15.3095        181
  15.3280        175
  15.3466        138
  15.3652        154
  15.3838        159
  15.4023        182
  15.4209        179
  15.4395        192
  15.4581        167
  15.4766        165
  15.4952        169
  15.5138        150
  15.5324        161
  15.5509        163
  15.5695        159
  15.5881        157
  15.6067        173
  15.6252        182
  15.6438        154
  15.6624        140
  15.6810        170
  15.6995        176
  15.7181        162
  15.7367        153
  15.7553        162
  15.7738        159
  15.7924        169
  15.8110        162
  15.8296        147
  15.8482        144
  15.8667        160
  15.8853        166
  15.9039        175
  15.9225        164
  15.9410        146
  15.9596        151
  15.9782        162
  15.9968        162
  16.0153        170
  16.0339        150
  16.0525        147
  16.0711        154
  16.0896        169
  16.1082        156
  16.1268        155
  16.1454        164
  16.1639        171
  16.1825        160
  16.2011        164
  16.2197        159
  16.2382        179
  16.2568        163
  16.2754        151
  16.2940        193
  16.3125        167
  16.3311        168
  16.3497        171
  16.3683        181
  16.3868        177
  16.4054        161
  16.4240        144
  16.4426        139
  16.4611        160
  16.4797        156
  16.4983        177
  16.5169        172
  16.5354        146
  16.5540        157
  16.5726        146
  16.5912        172
  16.6097        166
  16.6283        175
  16.6469        158
  16.6655        153
  16.6841        158
  16.7026        167
  16.7212        173
  16.7398        164
  16.7584        162
  16.7769        170
  16.7955        161
  16.8141        180
  16.8327        150
  16.8512        180
  16.8698        126
  16.8884        185
  16.9070        182
  16.9255        184
  16.9441        179
  16.9627        168
  16.9813        155
  16.9998        172
  17.0184        152
  17.0370        151
  17.0556        156
  17.0741        160
  17.0927        126
  17.1113        159
  17.1299        162
  17.1484        169
  17.1670        173
  17.1856        168
  17.2042        164
  17.2227        169
  17.2413        157
  17.2599        171
  17.2785        159
  17.2970        170
  17.3156        157
  17.3342        163
  17.3528        154
  17.3713        175
  17.3899        170
  17.4085        153
  17.4271        167
  17.4457        134
  17.4642        167
  17.4828        183
  17.5014        153
  17.5200        152
  17.5385        148
  17.5571        183
  17.5757        179
  17.5943        146
  17.6128        174
  17.6314        148
  17.6500        152
  17.6686        159
  17.6871        148
  17.7057        171
  17.7243        167
  17.7429        162
  17.7614        152
  17.7800        148
  17.7986        176
  17.8172        154
  17.8357        183
  17.8543        164
  17.8729        165
  17.8915        169
  17.9100        146
  17.9286        178
  17.9472        148
  17.9658        193
  17.9843        174
  18.0029        197
  18.0215        169
  18.0401        151
  18.0586        170
  18.0772        143
  18.0958        156
  18.1144        157
  18.1329        181
  18.1515        175
  18.1701        143
  18.1887        165
  18.2073        166
  18.2258        172
  18.2444        164
  18.2630        167
  18.2816        180
  18.3001        168
  18.3187        170
  18.3373        185
  18.3559        149
  18.3744        174
  18.3930        165
  18.4116        167
  18.4302        196
  18.4487        183
  18.4673        171
  18.4859        152
  18.5045        170
  18.5230        169
  18.5416        173
  18.5602        190
  18.5788        160
  18.5973        169
  18.6159        174
  18.6345        180
  18.6531        160
  18.6716        148
  18.6902        165
  18.7088        141
  18.7274        169
  18.7459        164
  18.7645        183
  18.7831        174
  18.8017        174
  18.8202        173
  18.8388        168
  18.8574        150
  18.8760        154
  18.8945        149
  18.9131        161
  18.9317        162
  18.9503        183
  18.9689        190
  18.9874        175
  19.0060        152
  19.0246        159
  19.0432        183
  19.0617        182
  19.0803        167
  19.0989        163
  19.1175        170
  19.1360        180
  19.1546        164
  19.1732        169
  19.1918        171
  19.2103        192
  19.2289        176
  19.2475        172
  19.2661        180
  19.2846        181
  19.3032        183
  19.3218        169
  19.3404        174
  19.3589        166
  19.3775        157
  19.3961        171
  19.4147        187
  19.4332        180
  19.4518        188
  19.4704        174
  19.4890        188
  19.5075        164
  19.5261        172
  19.5447        179
  19.5633        194
  19.5818        177
  19.6004        166
  19.6190        169
  19.6376        178
  19.6561        159
  19.6747        174
  19.6933        198
  19.7119        179
  19.7305        179
  19.7490        181
  19.7676        181
  19.7862        192
  19.8048        197
  19.8233        173
  19.8419        160
  19.8605        181
  19.8791        185
  19.8976        165
  19.9162        204
  19.9348        192
  19.9534        161
  19.9719        197
  19.9905        172
  20.0091        182
  20.0277        168
  20.0462        173
  20.0648        176
  20.0834        150
  20.1020        183
  20.1205        175
  20.1391        189
  20.1577        185
  20.1763        192
  20.1948        194
  20.2134        164
  20.2320        192
  20.2506        200
  20.2691        177
  20.2877        192
  20.3063        183
  20.3249        193
  20.3434        176
  20.3620        199
  20.3806        205
  20.3992        197
  20.4177        172
  20.4363        185
  20.4549        182
  20.4735        194
