; (content of file Y:\Sam\Apurva-07-20-2022\puck1\ML_20220721_30_SJD_0_LaB6-4min.raw)
_FILEVERSION = 3
_SAMPLE = ML_20220721_30_SJD_0_LaB6-4min
_+SAMPLE = 
_SITE = USA
_USER = Administrator
_GONIOMETER_CODE = 20
; Goniometer : D8 theta/2theta, stage : Unknown
_ATTACHMENTS_CODE = 0
_GONIOMETER_RADIUS = 200.5
_FIXED_DIVSLIT = 0.6
_FIXED_SAMPLESLIT = 0
_SOLLER_SLITS = 2
_FIXED_DETSLIT = 9.55
_MONOCHROMATOR = 0
; Incident beam monochromator : None
_SOLLER_SLITS_2 = N
_THIN_FILM = N
_BETA_FILTER = Y
_FIXED_ANTISLIT = 5.89
_ANALYZER_CODE = 0
; Received beam analyzer : None
_DATEMEASURED = "25-Jul-2022 16:07:01"
_WL_UNIT = A
_WL1 = 1.5406
_WL2 = 1.54439
_WL3 = 1.39222
_WLRATIO = 0.5
_ANODE = Cu
_V4_INF_CREATOR = XRDWizard
_V4_INF_CREATOR_VERSION = V2.9.0.22
_V4_INF_WIZARD_VERSION = V2.9.0.22
_V4_INF_WIZARD_ADDINS = V2.9.0.22
_V4_INF_WIZARD_DOCTYPE = XRD
_V4_INF_OSUSER = McQueenLab
_V4_INF_USER = Administrator
_V4_INF_SITE = USA
_V4_INF_SAMPLEID = ML_20220721_30_SJD_0_LaB6-4min

; Data for range 1
_DRIVE = COUPLED
_STEPTIME = 11.28
_STEPSIZE = 0.0185756
_STEPMODE = C
_START = 5
_THETA = 2.5
_2THETA = 5
_KHI = 0
_PHI = 0
_X = 0
_Y = 0
_Z = 0
_DETECTOR = 5
; Detector type : Unknown
_DETECTORSLIT = unkn
_AUX1 = 0
_AUX2 = 0
_AUX3 = 0
_TIMESTARTED = 16
_TEMP_RATE = -1
_TEMP_DELAY = -1
_KV = 40
_MA = 40
_RANGE_WL = 1.5406
_3DPLANE = 0
_V4_ADDITIONALDETECTOR = 257
_V4_PSD2THETA = 3.3674
_V4_PSDCHANNEL1 = 0
_V4_PSDAPERTURE = 12.68
_V4_PSDTYPE = 5
_V4_PSDFIXED = 0
_V4_COUNTERS_MASK = 4096
_V4_DRIVES_MASK = 0
_V4_ENCODERS_MASK = 0
_2THETACOUNTS = 1
; 2THETA  PSD
   5.0000        249
   5.0186        265
   5.0372        276
   5.0557        260
   5.0743        257
   5.0929        241
   5.1115        263
   5.1300        294
   5.1486        235
   5.1672        255
   5.1858        258
   5.2043        255
   5.2229        260
   5.2415        258
   5.2601        244
   5.2786        235
   5.2972        245
   5.3158        233
   5.3344        226
   5.3529        230
   5.3715        228
   5.3901        244
   5.4087        222
   5.4272        222
   5.4458        223
   5.4644        230
   5.4830        237
   5.5015        254
   5.5201        237
   5.5387        202
   5.5573        229
   5.5758        232
   5.5944        218
   5.6130        234
   5.6316        229
   5.6501        229
   5.6687        193
   5.6873        209
   5.7059        202
   5.7244        245
   5.7430        250
   5.7616        227
   5.7802        259
   5.7988        193
   5.8173        203
   5.8359        220
   5.8545        206
   5.8731        219
   5.8916        218
   5.9102        191
   5.9288        186
   5.9474        204
   5.9659        225
   5.9845        216
   6.0031        233
   6.0217        197
   6.0402        222
   6.0588        208
   6.0774        189
   6.0960        192
   6.1145        193
   6.1331        210
   6.1517        181
   6.1703        212
   6.1888        200
   6.2074        196
   6.2260        201
   6.2446        195
   6.2631        224
   6.2817        197
   6.3003        213
   6.3189        196
   6.3374        205
   6.3560        214
   6.3746        202
   6.3932        181
   6.4117        188
   6.4303        189
   6.4489        158
   6.4675        177
   6.4860        175
   6.5046        176
   6.5232        194
   6.5418        178
   6.5604        195
   6.5789        183
   6.5975        189
   6.6161        177
   6.6347        184
   6.6532        190
   6.6718        177
   6.6904        167
   6.7090        169
   6.7275        208
   6.7461        172
   6.7647        163
   6.7833        177
   6.8018        190
   6.8204        167
   6.8390        169
   6.8576        188
   6.8761        177
   6.8947        172
   6.9133        144
   6.9319        151
   6.9504        177
   6.9690        181
   6.9876        187
   7.0062        153
   7.0247        153
   7.0433        138
   7.0619        160
   7.0805        161
   7.0990        162
   7.1176        161
   7.1362        170
   7.1548        162
   7.1733        193
   7.1919        136
   7.2105        163
   7.2291        177
   7.2476        172
   7.2662        167
   7.2848        173
   7.3034        147
   7.3220        150
   7.3405        164
   7.3591        161
   7.3777        164
   7.3963        155
   7.4148        176
   7.4334        155
   7.4520        165
   7.4706        170
   7.4891        162
   7.5077        188
   7.5263        154
   7.5449        162
   7.5634        166
   7.5820        163
   7.6006        195
   7.6192        171
   7.6377        171
   7.6563        198
   7.6749        157
   7.6935        178
   7.7120        179
   7.7306        154
   7.7492        172
   7.7678        162
   7.7863        184
   7.8049        171
   7.8235        205
   7.8421        184
   7.8606        191
   7.8792        188
   7.8978        160
   7.9164        170
   7.9349        170
   7.9535        184
   7.9721        193
   7.9907        187
   8.0092        164
   8.0278        199
   8.0464        171
   8.0650        185
   8.0835        212
   8.1021        178
   8.1207        180
   8.1393        169
   8.1579        160
   8.1764        208
   8.1950        186
   8.2136        186
   8.2322        184
   8.2507        212
   8.2693        200
   8.2879        211
   8.3065        192
   8.3250        195
   8.3436        198
   8.3622        187
   8.3808        192
   8.3993        187
   8.4179        200
   8.4365        185
   8.4551        194
   8.4736        207
   8.4922        193
   8.5108        194
   8.5294        204
   8.5479        204
   8.5665        231
   8.5851        195
   8.6037        175
   8.6222        212
   8.6408        218
   8.6594        202
   8.6780        210
   8.6965        189
   8.7151        215
   8.7337        203
   8.7523        194
   8.7708        218
   8.7894        206
   8.8080        199
   8.8266        223
   8.8451        210
   8.8637        236
   8.8823        227
   8.9009        210
   8.9195        248
   8.9380        188
   8.9566        217
   8.9752        198
   8.9938        225
   9.0123        256
   9.0309        219
   9.0495        173
   9.0681        223
   9.0866        226
   9.1052        222
   9.1238        248
   9.1424        216
   9.1609        218
   9.1795        212
   9.1981        207
   9.2167        235
   9.2352        212
   9.2538        206
   9.2724        213
   9.2910        218
   9.3095        208
   9.3281        230
   9.3467        229
   9.3653        222
   9.3838        245
   9.4024        215
   9.4210        221
   9.4396        201
   9.4581        203
   9.4767        239
   9.4953        232
   9.5139        219
   9.5324        232
   9.5510        231
   9.5696        258
   9.5882        226
   9.6067        228
   9.6253        216
   9.6439        226
   9.6625        227
   9.6811        198
   9.6996        221
   9.7182        229
   9.7368        229
   9.7554        258
   9.7739        235
   9.7925        208
   9.8111        221
   9.8297        248
   9.8482        252
   9.8668        241
   9.8854        225
   9.9040        238
   9.9225        247
   9.9411        252
   9.9597        239
   9.9783        225
   9.9968        257
  10.0154        231
  10.0340        254
  10.0526        233
  10.0711        242
  10.0897        245
  10.1083        276
  10.1269        265
  10.1454        199
  10.1640        238
  10.1826        260
  10.2012        243
  10.2197        256
  10.2383        253
  10.2569        250
  10.2755        264
  10.2940        247
  10.3126        245
  10.3312        258
  10.3498        215
  10.3683        253
  10.3869        242
  10.4055        230
  10.4241        254
  10.4427        252
  10.4612        249
  10.4798        264
  10.4984        250
  10.5170        243
  10.5355        224
  10.5541        252
  10.5727        267
  10.5913        257
  10.6098        274
  10.6284        265
  10.6470        245
  10.6656        237
  10.6841        242
  10.7027        269
  10.7213        234
  10.7399        227
  10.7584        242
  10.7770        258
  10.7956        259
  10.8142        251
  10.8327        274
  10.8513        255
  10.8699        251
  10.8885        216
  10.9070        237
  10.9256        232
  10.9442        242
  10.9628        233
  10.9813        244
  10.9999        196
  11.0185        244
  11.0371        228
  11.0556        267
  11.0742        235
  11.0928        231
  11.1114        249
  11.1299        253
  11.1485        229
  11.1671        251
  11.1857        239
  11.2043        214
  11.2228        207
  11.2414        241
  11.2600        235
  11.2786        238
  11.2971        240
  11.3157        265
  11.3343        251
  11.3529        258
  11.3714        245
  11.3900        224
  11.4086        225
  11.4272        245
  11.4457        251
  11.4643        255
  11.4829        203
  11.5015        241
  11.5200        244
  11.5386        222
  11.5572        231
  11.5758        268
  11.5943        221
  11.6129        243
  11.6315        231
  11.6501        216
  11.6686        229
  11.6872        216
  11.7058        237
  11.7244        227
  11.7429        250
  11.7615        250
  11.7801        229
  11.7987        251
  11.8172        231
  11.8358        262
  11.8544        245
  11.8730        230
  11.8915        219
  11.9101        247
  11.9287        247
  11.9473        238
  11.9659        236
  11.9844        239
  12.0030        230
  12.0216        237
  12.0402        200
  12.0587        223
  12.0773        209
  12.0959        210
  12.1145        213
  12.1330        228
  12.1516        224
  12.1702        237
  12.1888        235
  12.2073        229
  12.2259        254
  12.2445        226
  12.2631        217
  12.2816        259
  12.3002        215
  12.3188        216
  12.3374        217
  12.3559        249
  12.3745        254
  12.3931        221
  12.4117        216
  12.4302        206
  12.4488        223
  12.4674        213
  12.4860        209
  12.5045        228
  12.5231        244
  12.5417        233
  12.5603        239
  12.5788        224
  12.5974        233
  12.6160        184
  12.6346        215
  12.6531        221
  12.6717        242
  12.6903        200
  12.7089        203
  12.7274        204
  12.7460        198
  12.7646        198
  12.7832        245
  12.8018        243
  12.8203        215
  12.8389        193
  12.8575        242
  12.8761        234
  12.8946        214
  12.9132        220
  12.9318        202
  12.9504        209
  12.9689        231
  12.9875        191
  13.0061        208
  13.0247        194
  13.0432        206
  13.0618        202
  13.0804        199
  13.0990        219
  13.1175        214
  13.1361        200
  13.1547        200
  13.1733        195
  13.1918        201
  13.2104        197
  13.2290        205
  13.2476        175
  13.2661        211
  13.2847        186
  13.3033        207
  13.3219        202
  13.3404        195
  13.3590        196
  13.3776        211
  13.3962        205
  13.4147        201
  13.4333        212
  13.4519        185
  13.4705        207
  13.4890        205
  13.5076        188
  13.5262        208
  13.5448        203
  13.5634        170
  13.5819        186
  13.6005        213
  13.6191        196
  13.6377        205
  13.6562        199
  13.6748        192
  13.6934        182
  13.7120        181
  13.7305        237
  13.7491        169
  13.7677        190
  13.7863        171
  13.8048        197
  13.8234        199
  13.8420        195
  13.8606        159
  13.8791        204
  13.8977        192
  13.9163        177
  13.9349        169
  13.9534        176
  13.9720        162
  13.9906        202
  14.0092        197
  14.0277        172
  14.0463        195
  14.0649        210
  14.0835        180
  14.1020        191
  14.1206        207
  14.1392        196
  14.1578        193
  14.1763        187
  14.1949        165
  14.2135        170
  14.2321        166
  14.2506        195
  14.2692        190
  14.2878        155
  14.3064        179
  14.3250        181
  14.3435        181
  14.3621        185
  14.3807        186
  14.3993        192
  14.4178        191
  14.4364        159
  14.4550        164
  14.4736        185
  14.4921        169
  14.5107        203
  14.5293        186
  14.5479        154
  14.5664        185
  14.5850        194
  14.6036        177
  14.6222        183
  14.6407        163
  14.6593        174
  14.6779        167
  14.6965        171
  14.7150        171
  14.7336        173
  14.7522        180
  14.7708        174
  14.7893        179
  14.8079        171
  14.8265        187
  14.8451        171
  14.8636        189
  14.8822        188
  14.9008        170
  14.9194        173
  14.9379        173
  14.9565        158
  14.9751        156
  14.9937        177
  15.0122        176
  15.0308        148
  15.0494        151
  15.0680        166
  15.0866        156
  15.1051        178
  15.1237        165
  15.1423        152
  15.1609        175
  15.1794        158
  15.1980        171
  15.2166        189
  15.2352        177
  15.2537        175
  15.2723        165
  15.2909        161
  15.3095        182
  15.3280        164
  15.3466        160
  15.3652        163
  15.3838        166
  15.4023        164
  15.4209        170
  15.4395        154
  15.4581        173
  15.4766        163
  15.4952        182
  15.5138        164
  15.5324        181
  15.5509        185
  15.5695        160
  15.5881        136
  15.6067        166
  15.6252        170
  15.6438        162
  15.6624        156
  15.6810        150
  15.6995        168
  15.7181        164
  15.7367        179
  15.7553        170
  15.7738        155
  15.7924        177
  15.8110        167
  15.8296        178
  15.8482        134
  15.8667        161
  15.8853        169
  15.9039        179
  15.9225        159
  15.9410        181
  15.9596        160
  15.9782        161
  15.9968        171
  16.0153        161
  16.0339        182
  16.0525        162
  16.0711        171
  16.0896        162
  16.1082        142
  16.1268        168
  16.1454        163
  16.1639        150
  16.1825        142
  16.2011        172
  16.2197        154
  16.2382        144
  16.2568        159
  16.2754        175
  16.2940        175
  16.3125        162
  16.3311        164
  16.3497        153
  16.3683        164
  16.3868        147
  16.4054        147
  16.4240        195
  16.4426        157
  16.4611        154
  16.4797        179
  16.4983        158
  16.5169        134
  16.5354        152
  16.5540        158
  16.5726        154
  16.5912        172
  16.6097        166
  16.6283        164
  16.6469        170
  16.6655        160
  16.6841        173
  16.7026        185
  16.7212        142
  16.7398        165
  16.7584        154
  16.7769        140
  16.7955        155
  16.8141        139
  16.8327        136
  16.8512        178
  16.8698        131
  16.8884        146
  16.9070        172
  16.9255        156
  16.9441        169
  16.9627        157
  16.9813        160
  16.9998        150
  17.0184        147
  17.0370        152
  17.0556        148
  17.0741        154
  17.0927        161
  17.1113        135
  17.1299        172
  17.1484        155
  17.1670        146
  17.1856        152
  17.2042        151
  17.2227        156
  17.2413        176
  17.2599        160
  17.2785        128
  17.2970        145
  17.3156        168
  17.3342        161
  17.3528        156
  17.3713        175
  17.3899        153
  17.4085        148
  17.4271        170
  17.4457        162
  17.4642        173
  17.4828        145
  17.5014        154
  17.5200        160
  17.5385        183
  17.5571        170
  17.5757        171
  17.5943        177
  17.6128        165
  17.6314        181
  17.6500        166
  17.6686        175
  17.6871        159
  17.7057        163
  17.7243        168
  17.7429        188
  17.7614        146
  17.7800        168
  17.7986        168
  17.8172        172
  17.8357        152
  17.8543        167
  17.8729        145
  17.8915        158
  17.9100        172
  17.9286        142
  17.9472        162
  17.9658        174
  17.9843        168
  18.0029        163
  18.0215        181
  18.0401        151
  18.0586        154
  18.0772        188
  18.0958        196
  18.1144        170
  18.1329        161
  18.1515        145
  18.1701        153
  18.1887        166
  18.2073        193
  18.2258        135
  18.2444        168
  18.2630        178
  18.2816        179
  18.3001        172
  18.3187        182
  18.3373        167
  18.3559        175
  18.3744        176
  18.3930        158
  18.4116        170
  18.4302        176
  18.4487        177
  18.4673        170
  18.4859        172
  18.5045        170
  18.5230        170
  18.5416        176
  18.5602        175
  18.5788        168
  18.5973        157
  18.6159        165
  18.6345        169
  18.6531        184
  18.6716        181
  18.6902        172
  18.7088        195
  18.7274        184
  18.7459        179
  18.7645        191
  18.7831        158
  18.8017        149
  18.8202        161
  18.8388        155
  18.8574        188
  18.8760        168
  18.8945        156
  18.9131        164
  18.9317        164
  18.9503        170
  18.9689        177
  18.9874        155
  19.0060        151
  19.0246        171
  19.0432        180
  19.0617        164
  19.0803        164
  19.0989        185
  19.1175        178
  19.1360        209
  19.1546        171
  19.1732        189
  19.1918        169
  19.2103        163
  19.2289        166
  19.2475        148
  19.2661        178
  19.2846        167
  19.3032        159
  19.3218        187
  19.3404        143
  19.3589        153
  19.3775        156
  19.3961        186
  19.4147        165
  19.4332        148
  19.4518        182
  19.4704        190
  19.4890        200
  19.5075        169
  19.5261        146
  19.5447        159
  19.5633        179
  19.5818        195
  19.6004        177
  19.6190        188
  19.6376        186
  19.6561        181
  19.6747        192
  19.6933        169
  19.7119        179
  19.7305        187
  19.7490        173
  19.7676        169
  19.7862        193
  19.8048        165
  19.8233        180
  19.8419        143
  19.8605        191
  19.8791        169
  19.8976        172
  19.9162        171
  19.9348        164
  19.9534        194
  19.9719        190
  19.9905        174
  20.0091        167
  20.0277        181
  20.0462        192
  20.0648        164
  20.0834        164
  20.1020        213
  20.1205        198
  20.1391        174
  20.1577        157
  20.1763        181
  20.1948        207
  20.2134        206
  20.2320        190
  20.2506        171
  20.2691        175
  20.2877        173
  20.3063        188
  20.3249        191
  20.3434        170
  20.3620        172
  20.3806        166
  20.3992        196
  20.4177        182
  20.4363        179
  20.4549        160
  20.4735        164
