; (content of file Y:\Sam\Apurva-07-20-2022\puck4\ML_20220718_2_SJD_0_LaB6-2min.raw)
_FILEVERSION = 3
_SAMPLE = ML_20220718_2_SJD_0_LaB6-2mi
_+SAMPLE = 
_SITE = USA
_USER = Administrator
_GONIOMETER_CODE = 20
; Goniometer : D8 theta/2theta, stage : Unknown
_ATTACHMENTS_CODE = 0
_GONIOMETER_RADIUS = 200.5
_FIXED_DIVSLIT = 0.6
_FIXED_SAMPLESLIT = 0
_SOLLER_SLITS = 2
_FIXED_DETSLIT = 9.55
_MONOCHROMATOR = 0
; Incident beam monochromator : None
_SOLLER_SLITS_2 = N
_THIN_FILM = N
_BETA_FILTER = Y
_FIXED_ANTISLIT = 5.89
_ANALYZER_CODE = 0
; Received beam analyzer : None
_DATEMEASURED = "21-Jul-2022 02:51:30"
_WL_UNIT = A
_WL1 = 1.5406
_WL2 = 1.54439
_WL3 = 1.39222
_WLRATIO = 0.5
_ANODE = Cu
_V4_INF_CREATOR = XRDWizard
_V4_INF_CREATOR_VERSION = V2.9.0.22
_V4_INF_WIZARD_VERSION = V2.9.0.22
_V4_INF_WIZARD_ADDINS = V2.9.0.22
_V4_INF_WIZARD_DOCTYPE = XRD
_V4_INF_OSUSER = McQueenLab
_V4_INF_USER = Administrator
_V4_INF_SITE = USA
_V4_INF_SAMPLEID = ML_20220718_2_SJD_0_LaB6-2mi

; Data for range 1
_DRIVE = COUPLED
_STEPTIME = 5.64
_STEPSIZE = 0.0185756
_STEPMODE = C
_START = 5
_THETA = 2.5
_2THETA = 5
_KHI = 0
_PHI = 0
_X = 0
_Y = 0
_Z = 0
_DETECTOR = 5
; Detector type : Unknown
_DETECTORSLIT = unkn
_AUX1 = 0
_AUX2 = 0
_AUX3 = 0
_TIMESTARTED = 15
_TEMP_RATE = -1
_TEMP_DELAY = -1
_KV = 40
_MA = 40
_RANGE_WL = 1.5406
_3DPLANE = 0
_V4_ADDITIONALDETECTOR = 257
_V4_PSD2THETA = 3.3704
_V4_PSDCHANNEL1 = 0
_V4_PSDAPERTURE = 12.68
_V4_PSDTYPE = 5
_V4_PSDFIXED = 0
_V4_COUNTERS_MASK = 4096
_V4_DRIVES_MASK = 0
_V4_ENCODERS_MASK = 0
_2THETACOUNTS = 1
; 2THETA  PSD
   5.0000        153
   5.0186        131
   5.0372        131
   5.0557        124
   5.0743        144
   5.0929        117
   5.1115        117
   5.1300        132
   5.1486        111
   5.1672        131
   5.1858        129
   5.2043        114
   5.2229        142
   5.2415        140
   5.2601        118
   5.2786        112
   5.2972        117
   5.3158        102
   5.3344        113
   5.3529        134
   5.3715        117
   5.3901        120
   5.4087        113
   5.4272        100
   5.4458        113
   5.4644         99
   5.4830        114
   5.5015         87
   5.5201        111
   5.5387        106
   5.5573         94
   5.5758        118
   5.5944         90
   5.6130        126
   5.6316        106
   5.6501        103
   5.6687        106
   5.6873        113
   5.7059        102
   5.7244         96
   5.7430        106
   5.7616        108
   5.7802         98
   5.7988        103
   5.8173        114
   5.8359         92
   5.8545        110
   5.8731         92
   5.8916         87
   5.9102        105
   5.9288        104
   5.9474         94
   5.9659        127
   5.9845         90
   6.0031        101
   6.0217         85
   6.0402        100
   6.0588         84
   6.0774         98
   6.0960         94
   6.1145         87
   6.1331         97
   6.1517         97
   6.1703         94
   6.1888         88
   6.2074         95
   6.2260         86
   6.2446         65
   6.2631         79
   6.2817        107
   6.3003        101
   6.3189         87
   6.3374         98
   6.3560         84
   6.3746         77
   6.3932         91
   6.4117         77
   6.4303         88
   6.4489         81
   6.4675         85
   6.4860         94
   6.5046         82
   6.5232        102
   6.5418         71
   6.5604         84
   6.5789         94
   6.5975         84
   6.6161         83
   6.6347         78
   6.6532         92
   6.6718         89
   6.6904         81
   6.7090         90
   6.7275         73
   6.7461         89
   6.7647         88
   6.7833         87
   6.8018         72
   6.8204         89
   6.8390         74
   6.8576         92
   6.8761         81
   6.8947         77
   6.9133         80
   6.9319         71
   6.9504         74
   6.9690         77
   6.9876         82
   7.0062         67
   7.0247         62
   7.0433         77
   7.0619         77
   7.0805         91
   7.0990         85
   7.1176         86
   7.1362         53
   7.1548         77
   7.1733         76
   7.1919         89
   7.2105         83
   7.2291         66
   7.2476         88
   7.2662         82
   7.2848         72
   7.3034         81
   7.3220         81
   7.3405         60
   7.3591         82
   7.3777         66
   7.3963         64
   7.4148         87
   7.4334         88
   7.4520         90
   7.4706         84
   7.4891         86
   7.5077         84
   7.5263         99
   7.5449         68
   7.5634         89
   7.5820         93
   7.6006         84
   7.6192         70
   7.6377         81
   7.6563        102
   7.6749         71
   7.6935         66
   7.7120         88
   7.7306         85
   7.7492         98
   7.7678         73
   7.7863         80
   7.8049         73
   7.8235         88
   7.8421         87
   7.8606        102
   7.8792        102
   7.8978         88
   7.9164         84
   7.9349        101
   7.9535        100
   7.9721         67
   7.9907        104
   8.0092         79
   8.0278         80
   8.0464        115
   8.0650         92
   8.0835         73
   8.1021        103
   8.1207        106
   8.1393         95
   8.1579         92
   8.1764         86
   8.1950         93
   8.2136        102
   8.2322         84
   8.2507         89
   8.2693         89
   8.2879         87
   8.3065         99
   8.3250         87
   8.3436         98
   8.3622         99
   8.3808        107
   8.3993         92
   8.4179         91
   8.4365        100
   8.4551         96
   8.4736         95
   8.4922         84
   8.5108        101
   8.5294        103
   8.5479         92
   8.5665        100
   8.5851         91
   8.6037         96
   8.6222        108
   8.6408         95
   8.6594         87
   8.6780         85
   8.6965        102
   8.7151         98
   8.7337        114
   8.7523        106
   8.7708         78
   8.7894         89
   8.8080         93
   8.8266        104
   8.8451         99
   8.8637        114
   8.8823         98
   8.9009         85
   8.9195         97
   8.9380         95
   8.9566         95
   8.9752        100
   8.9938         92
   9.0123         98
   9.0309        128
   9.0495         90
   9.0681         83
   9.0866        113
   9.1052         95
   9.1238        111
   9.1424        100
   9.1609         90
   9.1795         90
   9.1981         92
   9.2167        101
   9.2352         98
   9.2538         97
   9.2724        111
   9.2910         90
   9.3095        103
   9.3281        106
   9.3467         95
   9.3653        101
   9.3838        116
   9.4024        111
   9.4210        101
   9.4396        101
   9.4581        101
   9.4767        106
   9.4953         95
   9.5139        111
   9.5324         91
   9.5510        102
   9.5696        118
   9.5882         99
   9.6067        120
   9.6253        126
   9.6439        109
   9.6625         99
   9.6811        105
   9.6996        104
   9.7182        125
   9.7368        119
   9.7554        106
   9.7739        105
   9.7925        112
   9.8111        101
   9.8297        120
   9.8482        118
   9.8668        116
   9.8854        106
   9.9040        107
   9.9225        105
   9.9411        111
   9.9597        122
   9.9783        101
   9.9968        128
  10.0154        118
  10.0340        130
  10.0526        117
  10.0711        120
  10.0897        117
  10.1083        114
  10.1269        114
  10.1454         93
  10.1640        129
  10.1826        112
  10.2012         98
  10.2197        111
  10.2383         99
  10.2569        122
  10.2755        113
  10.2940        131
  10.3126        103
  10.3312        118
  10.3498         92
  10.3683        119
  10.3869        106
  10.4055        112
  10.4241        122
  10.4427         99
  10.4612        131
  10.4798        113
  10.4984        112
  10.5170        115
  10.5355        121
  10.5541        108
  10.5727        123
  10.5913        133
  10.6098        136
  10.6284        112
  10.6470        120
  10.6656        122
  10.6841         95
  10.7027        126
  10.7213        125
  10.7399         99
  10.7584        120
  10.7770        118
  10.7956        105
  10.8142        118
  10.8327         94
  10.8513        115
  10.8699        125
  10.8885        116
  10.9070        123
  10.9256        102
  10.9442        108
  10.9628        127
  10.9813        130
  10.9999        118
  11.0185        123
  11.0371        132
  11.0556        117
  11.0742         97
  11.0928        121
  11.1114        111
  11.1299        108
  11.1485        119
  11.1671        105
  11.1857        118
  11.2043         95
  11.2228         97
  11.2414        115
  11.2600        120
  11.2786        104
  11.2971        116
  11.3157        130
  11.3343        100
  11.3529        116
  11.3714        115
  11.3900        119
  11.4086        116
  11.4272        100
  11.4457        113
  11.4643        108
  11.4829        107
  11.5015         98
  11.5200        116
  11.5386        118
  11.5572        120
  11.5758        118
  11.5943        109
  11.6129        145
  11.6315        123
  11.6501        108
  11.6686        103
  11.6872         90
  11.7058         98
  11.7244        101
  11.7429        126
  11.7615        103
  11.7801        123
  11.7987        128
  11.8172        116
  11.8358         98
  11.8544         94
  11.8730        106
  11.8915        111
  11.9101         87
  11.9287        113
  11.9473        105
  11.9659         96
  11.9844        102
  12.0030        110
  12.0216        107
  12.0402        102
  12.0587        107
  12.0773         90
  12.0959        127
  12.1145         90
  12.1330        112
  12.1516        113
  12.1702        109
  12.1888        103
  12.2073         99
  12.2259        104
  12.2445        104
  12.2631        103
  12.2816        101
  12.3002         94
  12.3188        114
  12.3374        102
  12.3559        112
  12.3745         97
  12.3931        108
  12.4117        111
  12.4302        102
  12.4488        111
  12.4674         87
  12.4860        104
  12.5045        104
  12.5231        102
  12.5417         94
  12.5603         93
  12.5788         95
  12.5974         97
  12.6160        116
  12.6346         98
  12.6531        101
  12.6717         97
  12.6903         99
  12.7089        114
  12.7274         97
  12.7460        123
  12.7646         93
  12.7832         99
  12.8018         80
  12.8203        111
  12.8389         92
  12.8575         94
  12.8761        120
  12.8946         93
  12.9132         96
  12.9318         86
  12.9504        116
  12.9689        103
  12.9875         90
  13.0061        111
  13.0247         93
  13.0432        107
  13.0618         99
  13.0804        106
  13.0990         92
  13.1175        107
  13.1361         95
  13.1547         98
  13.1733         87
  13.1918         73
  13.2104        111
  13.2290        104
  13.2476         92
  13.2661        106
  13.2847         90
  13.3033         93
  13.3219        100
  13.3404         89
  13.3590         92
  13.3776         87
  13.3962         98
  13.4147         93
  13.4333         85
  13.4519         99
  13.4705        104
  13.4890        102
  13.5076         95
  13.5262         80
  13.5448         91
  13.5634        104
  13.5819        105
  13.6005        113
  13.6191         84
  13.6377         82
  13.6562         82
  13.6748         93
  13.6934         88
  13.7120         90
  13.7305         96
  13.7491         74
  13.7677         85
  13.7863         91
  13.8048         99
  13.8234         78
  13.8420         95
  13.8606        105
  13.8791         85
  13.8977         70
  13.9163         97
  13.9349         92
  13.9534         90
  13.9720         92
  13.9906        103
  14.0092        100
  14.0277         80
  14.0463         94
  14.0649         92
  14.0835         96
  14.1020         86
  14.1206         89
  14.1392         74
  14.1578         77
  14.1763         76
  14.1949         90
  14.2135         93
  14.2321         90
  14.2506         79
  14.2692         92
  14.2878         80
  14.3064         81
  14.3250        111
  14.3435         84
  14.3621         76
  14.3807         80
  14.3993         77
  14.4178         78
  14.4364         68
  14.4550         99
  14.4736         89
  14.4921         86
  14.5107         72
  14.5293         70
  14.5479         90
  14.5664         87
  14.5850         91
  14.6036         82
  14.6222         85
  14.6407         80
  14.6593         85
  14.6779         90
  14.6965         74
  14.7150         93
  14.7336         70
  14.7522         83
  14.7708         83
  14.7893         81
  14.8079         76
  14.8265         80
  14.8451         60
  14.8636         58
  14.8822         80
  14.9008         76
  14.9194         89
  14.9379         85
  14.9565         67
  14.9751         90
  14.9937         68
  15.0122         76
  15.0308         96
  15.0494         81
  15.0680         72
  15.0866         77
  15.1051         74
  15.1237         71
  15.1423         86
  15.1609         90
  15.1794         87
  15.1980         95
  15.2166         83
  15.2352         78
  15.2537         95
  15.2723         74
  15.2909         80
  15.3095         78
  15.3280         84
  15.3466         81
  15.3652         85
  15.3838         76
  15.4023         89
  15.4209         82
  15.4395         80
  15.4581         79
  15.4766         77
  15.4952         72
  15.5138         88
  15.5324         85
  15.5509         97
  15.5695         83
  15.5881         87
  15.6067         84
  15.6252         69
  15.6438         70
  15.6624         84
  15.6810         75
  15.6995         84
  15.7181         78
  15.7367         87
  15.7553         81
  15.7738         82
  15.7924         80
  15.8110         80
  15.8296         76
  15.8482         75
  15.8667         65
  15.8853         88
  15.9039         87
  15.9225         84
  15.9410         70
  15.9596         68
  15.9782         71
  15.9968         93
  16.0153         86
  16.0339         75
  16.0525         67
  16.0711         84
  16.0896         92
  16.1082         81
  16.1268         65
  16.1454         67
  16.1639         80
  16.1825         91
  16.2011         80
  16.2197         77
  16.2382         85
  16.2568         85
  16.2754         82
  16.2940         78
  16.3125         72
  16.3311         88
  16.3497         65
  16.3683         66
  16.3868         74
  16.4054         72
  16.4240         65
  16.4426         86
  16.4611         71
  16.4797         69
  16.4983         85
  16.5169         84
  16.5354         83
  16.5540         78
  16.5726         81
  16.5912         59
  16.6097         78
  16.6283         93
  16.6469         83
  16.6655         84
  16.6841         93
  16.7026         74
  16.7212         77
  16.7398         68
  16.7584         74
  16.7769         88
  16.7955         68
  16.8141         74
  16.8327         88
  16.8512         89
  16.8698         77
  16.8884         96
  16.9070         82
  16.9255         78
  16.9441         64
  16.9627         75
  16.9813         82
  16.9998         70
  17.0184         75
  17.0370         88
  17.0556         84
  17.0741         77
  17.0927        105
  17.1113         69
  17.1299         82
  17.1484         77
  17.1670         80
  17.1856         68
  17.2042         83
  17.2227         89
  17.2413         59
  17.2599         82
  17.2785         79
  17.2970         67
  17.3156         70
  17.3342         86
  17.3528         73
  17.3713         73
  17.3899         69
  17.4085         71
  17.4271         77
  17.4457         68
  17.4642         81
  17.4828         85
  17.5014         79
  17.5200         76
  17.5385         70
  17.5571         73
  17.5757         88
  17.5943         65
  17.6128         91
  17.6314         73
  17.6500         75
  17.6686         65
  17.6871         72
  17.7057         80
  17.7243         79
  17.7429         86
  17.7614         80
  17.7800         77
  17.7986         74
  17.8172         87
  17.8357         70
  17.8543         90
  17.8729         69
  17.8915         86
  17.9100         84
  17.9286         81
  17.9472         75
  17.9658         68
  17.9843         73
  18.0029         77
  18.0215         86
  18.0401         64
  18.0586         85
  18.0772         84
  18.0958         80
  18.1144         84
  18.1329         70
  18.1515         90
  18.1701         76
  18.1887         74
  18.2073         70
  18.2258         79
  18.2444         93
  18.2630         72
  18.2816         81
  18.3001         76
  18.3187         80
  18.3373         85
  18.3559         73
  18.3744         72
  18.3930         81
  18.4116         78
  18.4302         78
  18.4487         92
  18.4673         91
  18.4859         81
  18.5045         77
  18.5230         87
  18.5416         71
  18.5602         76
  18.5788         70
  18.5973         80
  18.6159         75
  18.6345         88
  18.6531         94
  18.6716         74
  18.6902         62
  18.7088         79
  18.7274         77
  18.7459         93
  18.7645         62
  18.7831         81
  18.8017         90
  18.8202         72
  18.8388         92
  18.8574         91
  18.8760         88
  18.8945        100
  18.9131         93
  18.9317         89
  18.9503         80
  18.9689         88
  18.9874         82
  19.0060         83
  19.0246         87
  19.0432        103
  19.0617         82
  19.0803         74
  19.0989         75
  19.1175         89
  19.1360         80
  19.1546         91
  19.1732         92
  19.1918         75
  19.2103         78
  19.2289         90
  19.2475         77
  19.2661         79
  19.2846         91
  19.3032         66
  19.3218         73
  19.3404         89
  19.3589         76
  19.3775         90
  19.3961         97
  19.4147         86
  19.4332         89
  19.4518         98
  19.4704         77
  19.4890        101
  19.5075         83
  19.5261         84
  19.5447         82
  19.5633         80
  19.5818         77
  19.6004         77
  19.6190         85
  19.6376         79
  19.6561         75
  19.6747         72
  19.6933         80
  19.7119        100
  19.7305         76
  19.7490        106
  19.7676         94
  19.7862         85
  19.8048         78
  19.8233         88
  19.8419         89
  19.8605        100
  19.8791         75
  19.8976         76
  19.9162        110
  19.9348         77
  19.9534         86
  19.9719         87
  19.9905         67
  20.0091         88
  20.0277        109
  20.0462         86
  20.0648         94
  20.0834         83
  20.1020         75
  20.1205         80
  20.1391        111
  20.1577         92
  20.1763         93
  20.1948         97
  20.2134         89
  20.2320         93
  20.2506        100
  20.2691         93
  20.2877        105
  20.3063         91
  20.3249         82
  20.3434         82
  20.3620         93
  20.3806         78
  20.3992        102
  20.4177         87
  20.4363         90
  20.4549         92
  20.4735         89
