; (content of file Y:\Sam\Apurva-07-20-2022\puck1\ML_20220721_38_SJD_0_LaB6-4min.raw)
_FILEVERSION = 3
_SAMPLE = ML_20220721_38_SJD_0_LaB6-4min
_+SAMPLE = 
_SITE = USA
_USER = Administrator
_GONIOMETER_CODE = 20
; Goniometer : D8 theta/2theta, stage : Unknown
_ATTACHMENTS_CODE = 0
_GONIOMETER_RADIUS = 200.5
_FIXED_DIVSLIT = 0.6
_FIXED_SAMPLESLIT = 0
_SOLLER_SLITS = 2
_FIXED_DETSLIT = 9.55
_MONOCHROMATOR = 0
; Incident beam monochromator : None
_SOLLER_SLITS_2 = N
_THIN_FILM = N
_BETA_FILTER = Y
_FIXED_ANTISLIT = 5.89
_ANALYZER_CODE = 0
; Received beam analyzer : None
_DATEMEASURED = "25-Jul-2022 16:42:49"
_WL_UNIT = A
_WL1 = 1.5406
_WL2 = 1.54439
_WL3 = 1.39222
_WLRATIO = 0.5
_ANODE = Cu
_V4_INF_CREATOR = XRDWizard
_V4_INF_CREATOR_VERSION = V2.9.0.22
_V4_INF_WIZARD_VERSION = V2.9.0.22
_V4_INF_WIZARD_ADDINS = V2.9.0.22
_V4_INF_WIZARD_DOCTYPE = XRD
_V4_INF_OSUSER = McQueenLab
_V4_INF_USER = Administrator
_V4_INF_SITE = USA
_V4_INF_SAMPLEID = ML_20220721_38_SJD_0_LaB6-4min

; Data for range 1
_DRIVE = COUPLED
_STEPTIME = 11.28
_STEPSIZE = 0.0185756
_STEPMODE = C
_START = 5
_THETA = 2.5
_2THETA = 5
_KHI = 0
_PHI = 0
_X = 0
_Y = 0
_Z = 0
_DETECTOR = 5
; Detector type : Unknown
_DETECTORSLIT = unkn
_AUX1 = 0
_AUX2 = 0
_AUX3 = 0
_TIMESTARTED = 15
_TEMP_RATE = -1
_TEMP_DELAY = -1
_KV = 40
_MA = 40
_RANGE_WL = 1.5406
_3DPLANE = 0
_V4_ADDITIONALDETECTOR = 257
_V4_PSD2THETA = 3.3878
_V4_PSDCHANNEL1 = 0
_V4_PSDAPERTURE = 12.68
_V4_PSDTYPE = 5
_V4_PSDFIXED = 0
_V4_COUNTERS_MASK = 4096
_V4_DRIVES_MASK = 0
_V4_ENCODERS_MASK = 0
_2THETACOUNTS = 1
; 2THETA  PSD
   5.0000        275
   5.0186        285
   5.0372        262
   5.0557        262
   5.0743        253
   5.0929        282
   5.1115        251
   5.1300        280
   5.1486        275
   5.1672        236
   5.1858        272
   5.2043        228
   5.2229        250
   5.2415        242
   5.2601        253
   5.2786        239
   5.2972        228
   5.3158        257
   5.3344        204
   5.3529        231
   5.3715        243
   5.3901        271
   5.4087        258
   5.4272        244
   5.4458        223
   5.4644        246
   5.4830        246
   5.5015        241
   5.5201        242
   5.5387        208
   5.5573        219
   5.5758        229
   5.5944        237
   5.6130        229
   5.6316        223
   5.6501        234
   5.6687        205
   5.6873        217
   5.7059        195
   5.7244        210
   5.7430        234
   5.7616        185
   5.7802        206
   5.7988        220
   5.8173        219
   5.8359        228
   5.8545        217
   5.8731        199
   5.8916        224
   5.9102        222
   5.9288        189
   5.9474        198
   5.9659        181
   5.9845        201
   6.0031        219
   6.0217        183
   6.0402        216
   6.0588        185
   6.0774        208
   6.0960        195
   6.1145        194
   6.1331        181
   6.1517        196
   6.1703        212
   6.1888        195
   6.2074        201
   6.2260        167
   6.2446        211
   6.2631        176
   6.2817        212
   6.3003        160
   6.3189        190
   6.3374        193
   6.3560        162
   6.3746        172
   6.3932        183
   6.4117        187
   6.4303        172
   6.4489        196
   6.4675        190
   6.4860        161
   6.5046        180
   6.5232        172
   6.5418        180
   6.5604        202
   6.5789        175
   6.5975        157
   6.6161        196
   6.6347        149
   6.6532        187
   6.6718        163
   6.6904        183
   6.7090        171
   6.7275        155
   6.7461        137
   6.7647        173
   6.7833        160
   6.8018        161
   6.8204        179
   6.8390        177
   6.8576        167
   6.8761        179
   6.8947        153
   6.9133        184
   6.9319        186
   6.9504        142
   6.9690        149
   6.9876        183
   7.0062        135
   7.0247        169
   7.0433        166
   7.0619        182
   7.0805        169
   7.0990        196
   7.1176        159
   7.1362        173
   7.1548        177
   7.1733        175
   7.1919        186
   7.2105        179
   7.2291        170
   7.2476        179
   7.2662        164
   7.2848        168
   7.3034        138
   7.3220        165
   7.3405        164
   7.3591        169
   7.3777        157
   7.3963        163
   7.4148        186
   7.4334        159
   7.4520        138
   7.4706        164
   7.4891        154
   7.5077        157
   7.5263        185
   7.5449        153
   7.5634        194
   7.5820        173
   7.6006        153
   7.6192        186
   7.6377        176
   7.6563        179
   7.6749        146
   7.6935        143
   7.7120        143
   7.7306        187
   7.7492        189
   7.7678        166
   7.7863        203
   7.8049        174
   7.8235        180
   7.8421        188
   7.8606        175
   7.8792        189
   7.8978        184
   7.9164        194
   7.9349        172
   7.9535        178
   7.9721        204
   7.9907        190
   8.0092        172
   8.0278        221
   8.0464        169
   8.0650        188
   8.0835        183
   8.1021        201
   8.1207        185
   8.1393        221
   8.1579        178
   8.1764        189
   8.1950        202
   8.2136        182
   8.2322        192
   8.2507        177
   8.2693        198
   8.2879        198
   8.3065        199
   8.3250        224
   8.3436        183
   8.3622        188
   8.3808        214
   8.3993        171
   8.4179        176
   8.4365        193
   8.4551        209
   8.4736        197
   8.4922        185
   8.5108        225
   8.5294        197
   8.5479        179
   8.5665        185
   8.5851        193
   8.6037        200
   8.6222        201
   8.6408        211
   8.6594        219
   8.6780        187
   8.6965        191
   8.7151        183
   8.7337        218
   8.7523        214
   8.7708        205
   8.7894        207
   8.8080        183
   8.8266        195
   8.8451        193
   8.8637        213
   8.8823        209
   8.9009        188
   8.9195        195
   8.9380        221
   8.9566        204
   8.9752        225
   8.9938        208
   9.0123        227
   9.0309        213
   9.0495        218
   9.0681        225
   9.0866        212
   9.1052        204
   9.1238        232
   9.1424        219
   9.1609        219
   9.1795        193
   9.1981        235
   9.2167        233
   9.2352        181
   9.2538        214
   9.2724        211
   9.2910        238
   9.3095        224
   9.3281        243
   9.3467        219
   9.3653        203
   9.3838        209
   9.4024        215
   9.4210        229
   9.4396        218
   9.4581        236
   9.4767        235
   9.4953        223
   9.5139        253
   9.5324        237
   9.5510        234
   9.5696        206
   9.5882        193
   9.6067        244
   9.6253        244
   9.6439        232
   9.6625        259
   9.6811        221
   9.6996        267
   9.7182        236
   9.7368        236
   9.7554        230
   9.7739        225
   9.7925        230
   9.8111        227
   9.8297        210
   9.8482        226
   9.8668        238
   9.8854        246
   9.9040        256
   9.9225        267
   9.9411        250
   9.9597        251
   9.9783        228
   9.9968        250
  10.0154        219
  10.0340        244
  10.0526        262
  10.0711        229
  10.0897        230
  10.1083        243
  10.1269        263
  10.1454        221
  10.1640        262
  10.1826        221
  10.2012        249
  10.2197        251
  10.2383        264
  10.2569        234
  10.2755        274
  10.2940        258
  10.3126        227
  10.3312        239
  10.3498        250
  10.3683        231
  10.3869        234
  10.4055        254
  10.4241        249
  10.4427        242
  10.4612        248
  10.4798        249
  10.4984        251
  10.5170        251
  10.5355        259
  10.5541        239
  10.5727        222
  10.5913        213
  10.6098        236
  10.6284        233
  10.6470        245
  10.6656        251
  10.6841        253
  10.7027        236
  10.7213        212
  10.7399        249
  10.7584        249
  10.7770        232
  10.7956        227
  10.8142        244
  10.8327        249
  10.8513        243
  10.8699        243
  10.8885        228
  10.9070        224
  10.9256        255
  10.9442        255
  10.9628        250
  10.9813        238
  10.9999        246
  11.0185        244
  11.0371        248
  11.0556        221
  11.0742        232
  11.0928        237
  11.1114        245
  11.1299        242
  11.1485        259
  11.1671        228
  11.1857        239
  11.2043        226
  11.2228        258
  11.2414        239
  11.2600        260
  11.2786        243
  11.2971        219
  11.3157        234
  11.3343        249
  11.3529        245
  11.3714        241
  11.3900        225
  11.4086        250
  11.4272        267
  11.4457        255
  11.4643        223
  11.4829        257
  11.5015        266
  11.5200        220
  11.5386        222
  11.5572        231
  11.5758        262
  11.5943        229
  11.6129        235
  11.6315        263
  11.6501        211
  11.6686        213
  11.6872        222
  11.7058        215
  11.7244        229
  11.7429        219
  11.7615        239
  11.7801        224
  11.7987        229
  11.8172        217
  11.8358        247
  11.8544        256
  11.8730        246
  11.8915        229
  11.9101        262
  11.9287        243
  11.9473        221
  11.9659        235
  11.9844        223
  12.0030        228
  12.0216        228
  12.0402        224
  12.0587        238
  12.0773        224
  12.0959        204
  12.1145        217
  12.1330        266
  12.1516        236
  12.1702        214
  12.1888        231
  12.2073        232
  12.2259        202
  12.2445        232
  12.2631        212
  12.2816        234
  12.3002        205
  12.3188        220
  12.3374        238
  12.3559        211
  12.3745        236
  12.3931        214
  12.4117        224
  12.4302        208
  12.4488        232
  12.4674        233
  12.4860        229
  12.5045        225
  12.5231        211
  12.5417        238
  12.5603        217
  12.5788        204
  12.5974        199
  12.6160        208
  12.6346        230
  12.6531        225
  12.6717        226
  12.6903        222
  12.7089        202
  12.7274        230
  12.7460        222
  12.7646        187
  12.7832        219
  12.8018        185
  12.8203        199
  12.8389        197
  12.8575        194
  12.8761        204
  12.8946        215
  12.9132        216
  12.9318        211
  12.9504        223
  12.9689        197
  12.9875        208
  13.0061        209
  13.0247        230
  13.0432        204
  13.0618        188
  13.0804        194
  13.0990        207
  13.1175        219
  13.1361        197
  13.1547        212
  13.1733        201
  13.1918        186
  13.2104        201
  13.2290        197
  13.2476        191
  13.2661        213
  13.2847        199
  13.3033        201
  13.3219        203
  13.3404        196
  13.3590        203
  13.3776        187
  13.3962        193
  13.4147        183
  13.4333        203
  13.4519        190
  13.4705        206
  13.4890        174
  13.5076        179
  13.5262        183
  13.5448        178
  13.5634        179
  13.5819        191
  13.6005        194
  13.6191        180
  13.6377        188
  13.6562        206
  13.6748        192
  13.6934        192
  13.7120        188
  13.7305        188
  13.7491        217
  13.7677        194
  13.7863        194
  13.8048        194
  13.8234        175
  13.8420        170
  13.8606        174
  13.8791        173
  13.8977        186
  13.9163        199
  13.9349        199
  13.9534        193
  13.9720        174
  13.9906        175
  14.0092        175
  14.0277        187
  14.0463        170
  14.0649        183
  14.0835        198
  14.1020        150
  14.1206        178
  14.1392        190
  14.1578        178
  14.1763        167
  14.1949        174
  14.2135        176
  14.2321        181
  14.2506        175
  14.2692        164
  14.2878        194
  14.3064        185
  14.3250        212
  14.3435        174
  14.3621        179
  14.3807        163
  14.3993        176
  14.4178        180
  14.4364        180
  14.4550        199
  14.4736        158
  14.4921        190
  14.5107        170
  14.5293        153
  14.5479        182
  14.5664        182
  14.5850        164
  14.6036        175
  14.6222        204
  14.6407        188
  14.6593        190
  14.6779        187
  14.6965        182
  14.7150        179
  14.7336        161
  14.7522        146
  14.7708        193
  14.7893        171
  14.8079        151
  14.8265        159
  14.8451        156
  14.8636        157
  14.8822        197
  14.9008        184
  14.9194        170
  14.9379        183
  14.9565        172
  14.9751        168
  14.9937        161
  15.0122        161
  15.0308        144
  15.0494        161
  15.0680        169
  15.0866        152
  15.1051        175
  15.1237        169
  15.1423        159
  15.1609        166
  15.1794        172
  15.1980        172
  15.2166        186
  15.2352        177
  15.2537        177
  15.2723        149
  15.2909        152
  15.3095        178
  15.3280        168
  15.3466        169
  15.3652        163
  15.3838        173
  15.4023        196
  15.4209        171
  15.4395        161
  15.4581        154
  15.4766        171
  15.4952        148
  15.5138        170
  15.5324        173
  15.5509        179
  15.5695        190
  15.5881        176
  15.6067        177
  15.6252        165
  15.6438        159
  15.6624        163
  15.6810        167
  15.6995        187
  15.7181        166
  15.7367        173
  15.7553        167
  15.7738        157
  15.7924        178
  15.8110        180
  15.8296        188
  15.8482        152
  15.8667        177
  15.8853        179
  15.9039        176
  15.9225        154
  15.9410        158
  15.9596        148
  15.9782        142
  15.9968        169
  16.0153        153
  16.0339        154
  16.0525        154
  16.0711        168
  16.0896        163
  16.1082        163
  16.1268        162
  16.1454        153
  16.1639        169
  16.1825        151
  16.2011        166
  16.2197        150
  16.2382        180
  16.2568        168
  16.2754        161
  16.2940        158
  16.3125        169
  16.3311        178
  16.3497        154
  16.3683        159
  16.3868        156
  16.4054        168
  16.4240        160
  16.4426        135
  16.4611        165
  16.4797        161
  16.4983        162
  16.5169        173
  16.5354        189
  16.5540        183
  16.5726        153
  16.5912        165
  16.6097        163
  16.6283        176
  16.6469        187
  16.6655        162
  16.6841        145
  16.7026        164
  16.7212        135
  16.7398        165
  16.7584        152
  16.7769        170
  16.7955        160
  16.8141        132
  16.8327        135
  16.8512        159
  16.8698        174
  16.8884        179
  16.9070        161
  16.9255        160
  16.9441        148
  16.9627        170
  16.9813        155
  16.9998        168
  17.0184        140
  17.0370        168
  17.0556        142
  17.0741        154
  17.0927        182
  17.1113        171
  17.1299        168
  17.1484        177
  17.1670        166
  17.1856        172
  17.2042        162
  17.2227        180
  17.2413        160
  17.2599        174
  17.2785        178
  17.2970        159
  17.3156        160
  17.3342        161
  17.3528        184
  17.3713        174
  17.3899        166
  17.4085        158
  17.4271        162
  17.4457        173
  17.4642        162
  17.4828        161
  17.5014        176
  17.5200        131
  17.5385        142
  17.5571        160
  17.5757        151
  17.5943        154
  17.6128        182
  17.6314        150
  17.6500        156
  17.6686        144
  17.6871        166
  17.7057        168
  17.7243        149
  17.7429        179
  17.7614        162
  17.7800        154
  17.7986        174
  17.8172        162
  17.8357        151
  17.8543        158
  17.8729        160
  17.8915        175
  17.9100        168
  17.9286        172
  17.9472        176
  17.9658        174
  17.9843        140
  18.0029        175
  18.0215        174
  18.0401        166
  18.0586        169
  18.0772        148
  18.0958        167
  18.1144        169
  18.1329        172
  18.1515        154
  18.1701        156
  18.1887        186
  18.2073        154
  18.2258        162
  18.2444        166
  18.2630        169
  18.2816        149
  18.3001        169
  18.3187        163
  18.3373        207
  18.3559        178
  18.3744        142
  18.3930        183
  18.4116        173
  18.4302        161
  18.4487        171
  18.4673        176
  18.4859        160
  18.5045        164
  18.5230        188
  18.5416        161
  18.5602        143
  18.5788        178
  18.5973        172
  18.6159        181
  18.6345        170
  18.6531        148
  18.6716        171
  18.6902        164
  18.7088        162
  18.7274        169
  18.7459        170
  18.7645        178
  18.7831        195
  18.8017        185
  18.8202        182
  18.8388        174
  18.8574        175
  18.8760        170
  18.8945        172
  18.9131        189
  18.9317        188
  18.9503        179
  18.9689        172
  18.9874        146
  19.0060        192
  19.0246        182
  19.0432        165
  19.0617        166
  19.0803        163
  19.0989        182
  19.1175        162
  19.1360        170
  19.1546        207
  19.1732        179
  19.1918        175
  19.2103        181
  19.2289        204
  19.2475        153
  19.2661        197
  19.2846        168
  19.3032        163
  19.3218        177
  19.3404        184
  19.3589        165
  19.3775        168
  19.3961        180
  19.4147        171
  19.4332        162
  19.4518        194
  19.4704        186
  19.4890        195
  19.5075        154
  19.5261        194
  19.5447        178
  19.5633        156
  19.5818        171
  19.6004        168
  19.6190        161
  19.6376        155
  19.6561        167
  19.6747        186
  19.6933        167
  19.7119        181
  19.7305        170
  19.7490        181
  19.7676        197
  19.7862        190
  19.8048        183
  19.8233        160
  19.8419        169
  19.8605        169
  19.8791        171
  19.8976        173
  19.9162        174
  19.9348        185
  19.9534        171
  19.9719        190
  19.9905        182
  20.0091        170
  20.0277        164
  20.0462        201
  20.0648        185
  20.0834        185
  20.1020        183
  20.1205        193
  20.1391        174
  20.1577        179
  20.1763        202
  20.1948        168
  20.2134        187
  20.2320        179
  20.2506        174
  20.2691        191
  20.2877        187
  20.3063        185
  20.3249        177
  20.3434        179
  20.3620        181
  20.3806        175
  20.3992        167
  20.4177        191
  20.4363        166
  20.4549        211
  20.4735        176
