; (content of file Y:\Sam\Apurva-07-20-2022\puck2\ML_20220720_2_SJD_0_LaB6-4min.raw)
_FILEVERSION = 3
_SAMPLE = ML_20220720_2_SJD_0_LaB6-4min
_+SAMPLE = 
_SITE = USA
_USER = Administrator
_GONIOMETER_CODE = 20
; Goniometer : D8 theta/2theta, stage : Unknown
_ATTACHMENTS_CODE = 0
_GONIOMETER_RADIUS = 200.5
_FIXED_DIVSLIT = 0.6
_FIXED_SAMPLESLIT = 0
_SOLLER_SLITS = 2
_FIXED_DETSLIT = 9.55
_MONOCHROMATOR = 0
; Incident beam monochromator : None
_SOLLER_SLITS_2 = N
_THIN_FILM = N
_BETA_FILTER = Y
_FIXED_ANTISLIT = 5.89
_ANALYZER_CODE = 0
; Received beam analyzer : None
_DATEMEASURED = "25-Jul-2022 17:29:07"
_WL_UNIT = A
_WL1 = 1.5406
_WL2 = 1.54439
_WL3 = 1.39222
_WLRATIO = 0.5
_ANODE = Cu
_V4_INF_CREATOR = XRDWizard
_V4_INF_CREATOR_VERSION = V2.9.0.22
_V4_INF_WIZARD_VERSION = V2.9.0.22
_V4_INF_WIZARD_ADDINS = V2.9.0.22
_V4_INF_WIZARD_DOCTYPE = XRD
_V4_INF_OSUSER = McQueenLab
_V4_INF_USER = Administrator
_V4_INF_SITE = USA
_V4_INF_SAMPLEID = ML_20220720_2_SJD_0_LaB6-4min

; Data for range 1
_DRIVE = COUPLED
_STEPTIME = 11.28
_STEPSIZE = 0.0185756
_STEPMODE = C
_START = 5
_THETA = 2.5
_2THETA = 5
_KHI = 0
_PHI = 0
_X = 0
_Y = 0
_Z = 0
_DETECTOR = 5
; Detector type : Unknown
_DETECTORSLIT = unkn
_AUX1 = 0
_AUX2 = 0
_AUX3 = 0
_TIMESTARTED = 15
_TEMP_RATE = -1
_TEMP_DELAY = -1
_KV = 40
_MA = 40
_RANGE_WL = 1.5406
_3DPLANE = 0
_V4_ADDITIONALDETECTOR = 257
_V4_PSD2THETA = 3.3661
_V4_PSDCHANNEL1 = 0
_V4_PSDAPERTURE = 12.68
_V4_PSDTYPE = 5
_V4_PSDFIXED = 0
_V4_COUNTERS_MASK = 4096
_V4_DRIVES_MASK = 0
_V4_ENCODERS_MASK = 0
_2THETACOUNTS = 1
; 2THETA  PSD
   5.0000        259
   5.0186        270
   5.0372        276
   5.0557        277
   5.0743        285
   5.0929        231
   5.1115        260
   5.1300        276
   5.1486        251
   5.1672        289
   5.1858        268
   5.2043        254
   5.2229        286
   5.2415        241
   5.2601        259
   5.2786        228
   5.2972        254
   5.3158        279
   5.3344        266
   5.3529        261
   5.3715        269
   5.3901        256
   5.4087        240
   5.4272        252
   5.4458        201
   5.4644        262
   5.4830        228
   5.5015        226
   5.5201        210
   5.5387        220
   5.5573        224
   5.5758        224
   5.5944        230
   5.6130        217
   5.6316        241
   5.6501        214
   5.6687        204
   5.6873        209
   5.7059        233
   5.7244        216
   5.7430        209
   5.7616        195
   5.7802        220
   5.7988        202
   5.8173        223
   5.8359        186
   5.8545        220
   5.8731        179
   5.8916        191
   5.9102        196
   5.9288        192
   5.9474        204
   5.9659        200
   5.9845        193
   6.0031        202
   6.0217        195
   6.0402        189
   6.0588        233
   6.0774        204
   6.0960        185
   6.1145        184
   6.1331        205
   6.1517        201
   6.1703        224
   6.1888        196
   6.2074        175
   6.2260        205
   6.2446        203
   6.2631        193
   6.2817        222
   6.3003        161
   6.3189        202
   6.3374        228
   6.3560        194
   6.3746        185
   6.3932        188
   6.4117        162
   6.4303        183
   6.4489        170
   6.4675        185
   6.4860        168
   6.5046        183
   6.5232        175
   6.5418        172
   6.5604        185
   6.5789        173
   6.5975        169
   6.6161        185
   6.6347        173
   6.6532        182
   6.6718        166
   6.6904        152
   6.7090        174
   6.7275        175
   6.7461        184
   6.7647        173
   6.7833        186
   6.8018        171
   6.8204        138
   6.8390        183
   6.8576        165
   6.8761        163
   6.8947        188
   6.9133        188
   6.9319        185
   6.9504        150
   6.9690        178
   6.9876        176
   7.0062        162
   7.0247        189
   7.0433        142
   7.0619        136
   7.0805        154
   7.0990        141
   7.1176        165
   7.1362        165
   7.1548        171
   7.1733        160
   7.1919        154
   7.2105        151
   7.2291        152
   7.2476        140
   7.2662        159
   7.2848        162
   7.3034        168
   7.3220        174
   7.3405        182
   7.3591        146
   7.3777        163
   7.3963        155
   7.4148        182
   7.4334        155
   7.4520        156
   7.4706        164
   7.4891        142
   7.5077        145
   7.5263        165
   7.5449        159
   7.5634        179
   7.5820        185
   7.6006        177
   7.6192        192
   7.6377        160
   7.6563        191
   7.6749        179
   7.6935        184
   7.7120        172
   7.7306        204
   7.7492        186
   7.7678        194
   7.7863        166
   7.8049        182
   7.8235        195
   7.8421        183
   7.8606        172
   7.8792        180
   7.8978        167
   7.9164        143
   7.9349        172
   7.9535        170
   7.9721        163
   7.9907        204
   8.0092        240
   8.0278        182
   8.0464        214
   8.0650        185
   8.0835        195
   8.1021        241
   8.1207        162
   8.1393        192
   8.1579        207
   8.1764        175
   8.1950        184
   8.2136        223
   8.2322        188
   8.2507        211
   8.2693        204
   8.2879        212
   8.3065        179
   8.3250        210
   8.3436        189
   8.3622        180
   8.3808        197
   8.3993        207
   8.4179        196
   8.4365        218
   8.4551        182
   8.4736        205
   8.4922        202
   8.5108        203
   8.5294        216
   8.5479        218
   8.5665        203
   8.5851        186
   8.6037        203
   8.6222        191
   8.6408        213
   8.6594        186
   8.6780        212
   8.6965        216
   8.7151        228
   8.7337        207
   8.7523        213
   8.7708        215
   8.7894        203
   8.8080        194
   8.8266        211
   8.8451        220
   8.8637        213
   8.8823        215
   8.9009        222
   8.9195        211
   8.9380        209
   8.9566        211
   8.9752        203
   8.9938        229
   9.0123        241
   9.0309        216
   9.0495        207
   9.0681        224
   9.0866        208
   9.1052        202
   9.1238        196
   9.1424        203
   9.1609        206
   9.1795        224
   9.1981        193
   9.2167        203
   9.2352        225
   9.2538        231
   9.2724        213
   9.2910        193
   9.3095        214
   9.3281        229
   9.3467        267
   9.3653        205
   9.3838        243
   9.4024        241
   9.4210        224
   9.4396        217
   9.4581        230
   9.4767        211
   9.4953        224
   9.5139        215
   9.5324        219
   9.5510        232
   9.5696        236
   9.5882        229
   9.6067        220
   9.6253        213
   9.6439        220
   9.6625        229
   9.6811        229
   9.6996        252
   9.7182        235
   9.7368        237
   9.7554        235
   9.7739        245
   9.7925        211
   9.8111        242
   9.8297        219
   9.8482        227
   9.8668        225
   9.8854        236
   9.9040        258
   9.9225        245
   9.9411        280
   9.9597        257
   9.9783        221
   9.9968        250
  10.0154        243
  10.0340        239
  10.0526        242
  10.0711        254
  10.0897        248
  10.1083        226
  10.1269        246
  10.1454        257
  10.1640        226
  10.1826        210
  10.2012        243
  10.2197        252
  10.2383        216
  10.2569        234
  10.2755        234
  10.2940        242
  10.3126        251
  10.3312        248
  10.3498        240
  10.3683        228
  10.3869        252
  10.4055        254
  10.4241        259
  10.4427        238
  10.4612        199
  10.4798        226
  10.4984        254
  10.5170        242
  10.5355        279
  10.5541        242
  10.5727        244
  10.5913        222
  10.6098        250
  10.6284        224
  10.6470        290
  10.6656        227
  10.6841        274
  10.7027        268
  10.7213        231
  10.7399        243
  10.7584        241
  10.7770        265
  10.7956        255
  10.8142        219
  10.8327        260
  10.8513        237
  10.8699        231
  10.8885        260
  10.9070        244
  10.9256        244
  10.9442        232
  10.9628        246
  10.9813        219
  10.9999        215
  11.0185        242
  11.0371        246
  11.0556        245
  11.0742        229
  11.0928        222
  11.1114        247
  11.1299        239
  11.1485        263
  11.1671        235
  11.1857        260
  11.2043        237
  11.2228        234
  11.2414        214
  11.2600        273
  11.2786        233
  11.2971        242
  11.3157        257
  11.3343        220
  11.3529        251
  11.3714        236
  11.3900        248
  11.4086        229
  11.4272        253
  11.4457        252
  11.4643        260
  11.4829        252
  11.5015        227
  11.5200        245
  11.5386        253
  11.5572        252
  11.5758        247
  11.5943        245
  11.6129        246
  11.6315        250
  11.6501        236
  11.6686        244
  11.6872        251
  11.7058        230
  11.7244        224
  11.7429        249
  11.7615        241
  11.7801        226
  11.7987        236
  11.8172        244
  11.8358        229
  11.8544        258
  11.8730        228
  11.8915        246
  11.9101        235
  11.9287        238
  11.9473        244
  11.9659        216
  11.9844        221
  12.0030        219
  12.0216        204
  12.0402        236
  12.0587        224
  12.0773        250
  12.0959        252
  12.1145        224
  12.1330        242
  12.1516        242
  12.1702        232
  12.1888        231
  12.2073        234
  12.2259        240
  12.2445        228
  12.2631        253
  12.2816        231
  12.3002        226
  12.3188        219
  12.3374        221
  12.3559        237
  12.3745        258
  12.3931        211
  12.4117        221
  12.4302        214
  12.4488        219
  12.4674        220
  12.4860        224
  12.5045        212
  12.5231        234
  12.5417        255
  12.5603        237
  12.5788        187
  12.5974        240
  12.6160        244
  12.6346        209
  12.6531        214
  12.6717        219
  12.6903        222
  12.7089        200
  12.7274        241
  12.7460        210
  12.7646        228
  12.7832        230
  12.8018        222
  12.8203        217
  12.8389        220
  12.8575        212
  12.8761        215
  12.8946        205
  12.9132        203
  12.9318        202
  12.9504        211
  12.9689        217
  12.9875        208
  13.0061        188
  13.0247        197
  13.0432        224
  13.0618        221
  13.0804        195
  13.0990        221
  13.1175        177
  13.1361        201
  13.1547        213
  13.1733        211
  13.1918        207
  13.2104        206
  13.2290        197
  13.2476        208
  13.2661        192
  13.2847        181
  13.3033        206
  13.3219        186
  13.3404        199
  13.3590        195
  13.3776        213
  13.3962        204
  13.4147        195
  13.4333        212
  13.4519        193
  13.4705        200
  13.4890        185
  13.5076        177
  13.5262        192
  13.5448        181
  13.5634        197
  13.5819        179
  13.6005        202
  13.6191        189
  13.6377        184
  13.6562        172
  13.6748        211
  13.6934        184
  13.7120        213
  13.7305        178
  13.7491        182
  13.7677        211
  13.7863        197
  13.8048        178
  13.8234        182
  13.8420        177
  13.8606        193
  13.8791        210
  13.8977        176
  13.9163        181
  13.9349        181
  13.9534        190
  13.9720        185
  13.9906        186
  14.0092        186
  14.0277        192
  14.0463        162
  14.0649        185
  14.0835        159
  14.1020        196
  14.1206        179
  14.1392        188
  14.1578        202
  14.1763        173
  14.1949        177
  14.2135        174
  14.2321        147
  14.2506        217
  14.2692        176
  14.2878        183
  14.3064        177
  14.3250        163
  14.3435        186
  14.3621        164
  14.3807        165
  14.3993        187
  14.4178        190
  14.4364        165
  14.4550        174
  14.4736        195
  14.4921        191
  14.5107        171
  14.5293        183
  14.5479        182
  14.5664        152
  14.5850        192
  14.6036        165
  14.6222        184
  14.6407        190
  14.6593        155
  14.6779        178
  14.6965        176
  14.7150        184
  14.7336        157
  14.7522        185
  14.7708        182
  14.7893        152
  14.8079        162
  14.8265        172
  14.8451        171
  14.8636        166
  14.8822        167
  14.9008        154
  14.9194        200
  14.9379        173
  14.9565        181
  14.9751        160
  14.9937        191
  15.0122        162
  15.0308        155
  15.0494        156
  15.0680        153
  15.0866        164
  15.1051        154
  15.1237        154
  15.1423        171
  15.1609        163
  15.1794        181
  15.1980        149
  15.2166        181
  15.2352        163
  15.2537        181
  15.2723        167
  15.2909        161
  15.3095        161
  15.3280        146
  15.3466        187
  15.3652        164
  15.3838        168
  15.4023        171
  15.4209        160
  15.4395        194
  15.4581        191
  15.4766        179
  15.4952        183
  15.5138        162
  15.5324        161
  15.5509        180
  15.5695        181
  15.5881        181
  15.6067        170
  15.6252        178
  15.6438        184
  15.6624        164
  15.6810        194
  15.6995        172
  15.7181        146
  15.7367        148
  15.7553        186
  15.7738        154
  15.7924        179
  15.8110        157
  15.8296        151
  15.8482        165
  15.8667        170
  15.8853        175
  15.9039        169
  15.9225        137
  15.9410        203
  15.9596        166
  15.9782        164
  15.9968        167
  16.0153        177
  16.0339        199
  16.0525        139
  16.0711        158
  16.0896        164
  16.1082        150
  16.1268        159
  16.1454        170
  16.1639        152
  16.1825        154
  16.2011        167
  16.2197        143
  16.2382        155
  16.2568        184
  16.2754        144
  16.2940        161
  16.3125        160
  16.3311        173
  16.3497        167
  16.3683        171
  16.3868        180
  16.4054        155
  16.4240        142
  16.4426        165
  16.4611        156
  16.4797        165
  16.4983        154
  16.5169        151
  16.5354        167
  16.5540        164
  16.5726        144
  16.5912        176
  16.6097        174
  16.6283        152
  16.6469        192
  16.6655        183
  16.6841        183
  16.7026        168
  16.7212        154
  16.7398        165
  16.7584        169
  16.7769        155
  16.7955        161
  16.8141        166
  16.8327        162
  16.8512        166
  16.8698        149
  16.8884        165
  16.9070        153
  16.9255        171
  16.9441        139
  16.9627        169
  16.9813        142
  16.9998        177
  17.0184        179
  17.0370        174
  17.0556        168
  17.0741        178
  17.0927        149
  17.1113        152
  17.1299        159
  17.1484        178
  17.1670        174
  17.1856        156
  17.2042        177
  17.2227        153
  17.2413        194
  17.2599        169
  17.2785        165
  17.2970        158
  17.3156        136
  17.3342        166
  17.3528        172
  17.3713        154
  17.3899        149
  17.4085        174
  17.4271        190
  17.4457        162
  17.4642        181
  17.4828        170
  17.5014        152
  17.5200        173
  17.5385        169
  17.5571        162
  17.5757        160
  17.5943        186
  17.6128        153
  17.6314        156
  17.6500        164
  17.6686        154
  17.6871        161
  17.7057        162
  17.7243        170
  17.7429        161
  17.7614        166
  17.7800        167
  17.7986        151
  17.8172        190
  17.8357        144
  17.8543        158
  17.8729        187
  17.8915        164
  17.9100        162
  17.9286        159
  17.9472        169
  17.9658        162
  17.9843        164
  18.0029        152
  18.0215        166
  18.0401        165
  18.0586        187
  18.0772        179
  18.0958        171
  18.1144        201
  18.1329        159
  18.1515        169
  18.1701        153
  18.1887        157
  18.2073        178
  18.2258        186
  18.2444        171
  18.2630        173
  18.2816        172
  18.3001        150
  18.3187        173
  18.3373        170
  18.3559        159
  18.3744        178
  18.3930        152
  18.4116        187
  18.4302        172
  18.4487        171
  18.4673        169
  18.4859        163
  18.5045        156
  18.5230        158
  18.5416        171
  18.5602        188
  18.5788        154
  18.5973        147
  18.6159        176
  18.6345        178
  18.6531        172
  18.6716        162
  18.6902        178
  18.7088        177
  18.7274        175
  18.7459        162
  18.7645        173
  18.7831        176
  18.8017        180
  18.8202        167
  18.8388        150
  18.8574        162
  18.8760        146
  18.8945        159
  18.9131        173
  18.9317        178
  18.9503        157
  18.9689        163
  18.9874        163
  19.0060        169
  19.0246        158
  19.0432        196
  19.0617        189
  19.0803        172
  19.0989        167
  19.1175        169
  19.1360        178
  19.1546        162
  19.1732        174
  19.1918        177
  19.2103        157
  19.2289        160
  19.2475        188
  19.2661        156
  19.2846        158
  19.3032        171
  19.3218        186
  19.3404        173
  19.3589        171
  19.3775        162
  19.3961        173
  19.4147        166
  19.4332        174
  19.4518        170
  19.4704        198
  19.4890        189
  19.5075        164
  19.5261        164
  19.5447        191
  19.5633        180
  19.5818        181
  19.6004        143
  19.6190        151
  19.6376        170
  19.6561        197
  19.6747        164
  19.6933        177
  19.7119        185
  19.7305        170
  19.7490        187
  19.7676        187
  19.7862        176
  19.8048        172
  19.8233        186
  19.8419        183
  19.8605        166
  19.8791        170
  19.8976        198
  19.9162        172
  19.9348        172
  19.9534        190
  19.9719        174
  19.9905        217
  20.0091        195
  20.0277        171
  20.0462        176
  20.0648        163
  20.0834        197
  20.1020        187
  20.1205        200
  20.1391        186
  20.1577        175
  20.1763        165
  20.1948        195
  20.2134        183
  20.2320        174
  20.2506        169
  20.2691        187
  20.2877        181
  20.3063        181
  20.3249        172
  20.3434        200
  20.3620        155
  20.3806        183
  20.3992        186
  20.4177        186
  20.4363        186
  20.4549        195
  20.4735        192
