; (content of file Y:\Sam\Apurva-07-20-2022\puck4\ML_20220718_54_SJD_4_LaB6-1min.raw)
_FILEVERSION = 3
_SAMPLE = ML_20220718_54_SJD_4_LaB6-1min
_+SAMPLE = 
_SITE = USA
_USER = Administrator
_GONIOMETER_CODE = 20
; Goniometer : D8 theta/2theta, stage : Unknown
_ATTACHMENTS_CODE = 0
_GONIOMETER_RADIUS = 200.5
_FIXED_DIVSLIT = 0.6
_FIXED_SAMPLESLIT = 0
_SOLLER_SLITS = 2
_FIXED_DETSLIT = 9.55
_MONOCHROMATOR = 0
; Incident beam monochromator : None
_SOLLER_SLITS_2 = N
_THIN_FILM = N
_BETA_FILTER = Y
_FIXED_ANTISLIT = 5.89
_ANALYZER_CODE = 0
; Received beam analyzer : None
_DATEMEASURED = "26-Jul-2022 10:56:51"
_WL_UNIT = A
_WL1 = 1.5406
_WL2 = 1.54439
_WL3 = 1.39222
_WLRATIO = 0.5
_ANODE = Cu
_V4_INF_CREATOR = XRDWizard
_V4_INF_CREATOR_VERSION = V2.9.0.22
_V4_INF_WIZARD_VERSION = V2.9.0.22
_V4_INF_WIZARD_ADDINS = V2.9.0.22
_V4_INF_WIZARD_DOCTYPE = XRD
_V4_INF_OSUSER = McQueenLab
_V4_INF_USER = Administrator
_V4_INF_SITE = USA
_V4_INF_SAMPLEID = ML_20220718_54_SJD_4_LaB6-1min

; Data for range 1
_DRIVE = COUPLED
_STEPTIME = 4.23
_STEPSIZE = 0.0185756
_STEPMODE = C
_START = 5
_THETA = 2.5
_2THETA = 5
_KHI = 0
_PHI = 0
_X = 0
_Y = 0
_Z = 0
_DETECTOR = 5
; Detector type : Unknown
_DETECTORSLIT = unkn
_AUX1 = 0
_AUX2 = 0
_AUX3 = 0
_TIMESTARTED = 15
_TEMP_RATE = -1
_TEMP_DELAY = -1
_KV = 40
_MA = 40
_RANGE_WL = 1.5406
_3DPLANE = 0
_V4_ADDITIONALDETECTOR = 257
_V4_PSD2THETA = 3.3736
_V4_PSDCHANNEL1 = 0
_V4_PSDAPERTURE = 12.68
_V4_PSDTYPE = 5
_V4_PSDFIXED = 0
_V4_COUNTERS_MASK = 4096
_V4_DRIVES_MASK = 0
_V4_ENCODERS_MASK = 0
_2THETACOUNTS = 1
; 2THETA  PSD
   5.0000         87
   5.0186        104
   5.0372         94
   5.0557         87
   5.0743         90
   5.0929        104
   5.1115         96
   5.1300         88
   5.1486        100
   5.1672        100
   5.1858         95
   5.2043         81
   5.2229         88
   5.2415         84
   5.2601         85
   5.2786        100
   5.2972         91
   5.3158         68
   5.3344         97
   5.3529        103
   5.3715         78
   5.3901         85
   5.4087         82
   5.4272         77
   5.4458         86
   5.4644         80
   5.4830         83
   5.5015         91
   5.5201         95
   5.5387         82
   5.5573         75
   5.5758         81
   5.5944         83
   5.6130         80
   5.6316         89
   5.6501         85
   5.6687         94
   5.6873         73
   5.7059         74
   5.7244         74
   5.7430         71
   5.7616         82
   5.7802         78
   5.7988         67
   5.8173         74
   5.8359         76
   5.8545         64
   5.8731         66
   5.8916         80
   5.9102         75
   5.9288         64
   5.9474         78
   5.9659         72
   5.9845         68
   6.0031         59
   6.0217         74
   6.0402         63
   6.0588         86
   6.0774         67
   6.0960         60
   6.1145         65
   6.1331         75
   6.1517         69
   6.1703         77
   6.1888         67
   6.2074         67
   6.2260         73
   6.2446         61
   6.2631         80
   6.2817         59
   6.3003         58
   6.3189         58
   6.3374         61
   6.3560         81
   6.3746         77
   6.3932         58
   6.4117         71
   6.4303         87
   6.4489         78
   6.4675         51
   6.4860         56
   6.5046         56
   6.5232         67
   6.5418         76
   6.5604         78
   6.5789         64
   6.5975         68
   6.6161         70
   6.6347         76
   6.6532         52
   6.6718         63
   6.6904         56
   6.7090         62
   6.7275         79
   6.7461         61
   6.7647         57
   6.7833         54
   6.8018         60
   6.8204         59
   6.8390         58
   6.8576         59
   6.8761         65
   6.8947         54
   6.9133         48
   6.9319         65
   6.9504         71
   6.9690         66
   6.9876         54
   7.0062         41
   7.0247         67
   7.0433         46
   7.0619         48
   7.0805         58
   7.0990         55
   7.1176         50
   7.1362         64
   7.1548         63
   7.1733         60
   7.1919         57
   7.2105         62
   7.2291         47
   7.2476         67
   7.2662         67
   7.2848         62
   7.3034         55
   7.3220         68
   7.3405         60
   7.3591         47
   7.3777         54
   7.3963         62
   7.4148         56
   7.4334         60
   7.4520         43
   7.4706         69
   7.4891         60
   7.5077         60
   7.5263         58
   7.5449         49
   7.5634         59
   7.5820         54
   7.6006         60
   7.6192         56
   7.6377         55
   7.6563         58
   7.6749         59
   7.6935         69
   7.7120         66
   7.7306         52
   7.7492         61
   7.7678         60
   7.7863         70
   7.8049         60
   7.8235         68
   7.8421         62
   7.8606         57
   7.8792         73
   7.8978         66
   7.9164         63
   7.9349         68
   7.9535         79
   7.9721         62
   7.9907         66
   8.0092         70
   8.0278         43
   8.0464         67
   8.0650         74
   8.0835         69
   8.1021         61
   8.1207         63
   8.1393         75
   8.1579         74
   8.1764         66
   8.1950         89
   8.2136         61
   8.2322         67
   8.2507         77
   8.2693         70
   8.2879         65
   8.3065         65
   8.3250         81
   8.3436         66
   8.3622         74
   8.3808         77
   8.3993         70
   8.4179         76
   8.4365         66
   8.4551         66
   8.4736         63
   8.4922         74
   8.5108         59
   8.5294         73
   8.5479         71
   8.5665         69
   8.5851         72
   8.6037         57
   8.6222         71
   8.6408         91
   8.6594         93
   8.6780         73
   8.6965         76
   8.7151         60
   8.7337         61
   8.7523         77
   8.7708         76
   8.7894         94
   8.8080         95
   8.8266         56
   8.8451         59
   8.8637         83
   8.8823         71
   8.9009         71
   8.9195         72
   8.9380         71
   8.9566         81
   8.9752         77
   8.9938         87
   9.0123         66
   9.0309         76
   9.0495         74
   9.0681         83
   9.0866         63
   9.1052         79
   9.1238         78
   9.1424         81
   9.1609         65
   9.1795         83
   9.1981         77
   9.2167         65
   9.2352         65
   9.2538         82
   9.2724         84
   9.2910         71
   9.3095         77
   9.3281         68
   9.3467         86
   9.3653         87
   9.3838        102
   9.4024         76
   9.4210         81
   9.4396         96
   9.4581         63
   9.4767         82
   9.4953         86
   9.5139         86
   9.5324         78
   9.5510         96
   9.5696         74
   9.5882         83
   9.6067         85
   9.6253         79
   9.6439         88
   9.6625         78
   9.6811         79
   9.6996         85
   9.7182         71
   9.7368         74
   9.7554         89
   9.7739         82
   9.7925         73
   9.8111         77
   9.8297         84
   9.8482         83
   9.8668         90
   9.8854         84
   9.9040         86
   9.9225         89
   9.9411         85
   9.9597        110
   9.9783        101
   9.9968         82
  10.0154         84
  10.0340         77
  10.0526         82
  10.0711         84
  10.0897         95
  10.1083         89
  10.1269        101
  10.1454         76
  10.1640        101
  10.1826         96
  10.2012        104
  10.2197         80
  10.2383         71
  10.2569         73
  10.2755         91
  10.2940         87
  10.3126         90
  10.3312         88
  10.3498         89
  10.3683        101
  10.3869         98
  10.4055         91
  10.4241         97
  10.4427         95
  10.4612         91
  10.4798         75
  10.4984         86
  10.5170         97
  10.5355         93
  10.5541         88
  10.5727         77
  10.5913         82
  10.6098         86
  10.6284         97
  10.6470         72
  10.6656         87
  10.6841        105
  10.7027        103
  10.7213         94
  10.7399         88
  10.7584         84
  10.7770        106
  10.7956         88
  10.8142         95
  10.8327         78
  10.8513         90
  10.8699         78
  10.8885         82
  10.9070         92
  10.9256         88
  10.9442         82
  10.9628         95
  10.9813         81
  10.9999         67
  11.0185        100
  11.0371         85
  11.0556         85
  11.0742         93
  11.0928         86
  11.1114         78
  11.1299         69
  11.1485         81
  11.1671         97
  11.1857         91
  11.2043         97
  11.2228         99
  11.2414         92
  11.2600         84
  11.2786         86
  11.2971        101
  11.3157         93
  11.3343         98
  11.3529         87
  11.3714         80
  11.3900        102
  11.4086         88
  11.4272        103
  11.4457        101
  11.4643         89
  11.4829         84
  11.5015         85
  11.5200         87
  11.5386         95
  11.5572        109
  11.5758         76
  11.5943         94
  11.6129         74
  11.6315         85
  11.6501         86
  11.6686         81
  11.6872         87
  11.7058         90
  11.7244         83
  11.7429        100
  11.7615         78
  11.7801         78
  11.7987         80
  11.8172         81
  11.8358         83
  11.8544         79
  11.8730         69
  11.8915         94
  11.9101         81
  11.9287         84
  11.9473         95
  11.9659         89
  11.9844         83
  12.0030         71
  12.0216         83
  12.0402         86
  12.0587         89
  12.0773         69
  12.0959         86
  12.1145         88
  12.1330         84
  12.1516         96
  12.1702         89
  12.1888         78
  12.2073         78
  12.2259         67
  12.2445         85
  12.2631         75
  12.2816         92
  12.3002         71
  12.3188         80
  12.3374         74
  12.3559         84
  12.3745         83
  12.3931         80
  12.4117         92
  12.4302         79
  12.4488         61
  12.4674         80
  12.4860         73
  12.5045         90
  12.5231         74
  12.5417         85
  12.5603         75
  12.5788         70
  12.5974         82
  12.6160         74
  12.6346         80
  12.6531         90
  12.6717         78
  12.6903         72
  12.7089         98
  12.7274         91
  12.7460         73
  12.7646         92
  12.7832         90
  12.8018         64
  12.8203        107
  12.8389         76
  12.8575         62
  12.8761         70
  12.8946         64
  12.9132         90
  12.9318         71
  12.9504         69
  12.9689         82
  12.9875         76
  13.0061         87
  13.0247         79
  13.0432         74
  13.0618         76
  13.0804         67
  13.0990         85
  13.1175         75
  13.1361         65
  13.1547         67
  13.1733         79
  13.1918         72
  13.2104         71
  13.2290         77
  13.2476         79
  13.2661         76
  13.2847         63
  13.3033         78
  13.3219         83
  13.3404         65
  13.3590         70
  13.3776         70
  13.3962         81
  13.4147         65
  13.4333         74
  13.4519         76
  13.4705         71
  13.4890         68
  13.5076         59
  13.5262         64
  13.5448         66
  13.5634         75
  13.5819        101
  13.6005         69
  13.6191         86
  13.6377         74
  13.6562         74
  13.6748         77
  13.6934         76
  13.7120         51
  13.7305         67
  13.7491         65
  13.7677         64
  13.7863         76
  13.8048         66
  13.8234         60
  13.8420         77
  13.8606         52
  13.8791         80
  13.8977         65
  13.9163         68
  13.9349         66
  13.9534         73
  13.9720         58
  13.9906         68
  14.0092         69
  14.0277         62
  14.0463         59
  14.0649         76
  14.0835         56
  14.1020         65
  14.1206         75
  14.1392         61
  14.1578         66
  14.1763         61
  14.1949         63
  14.2135         57
  14.2321         54
  14.2506         79
  14.2692         67
  14.2878         59
  14.3064         69
  14.3250         69
  14.3435         64
  14.3621         66
  14.3807         69
  14.3993         61
  14.4178         71
  14.4364         82
  14.4550         71
  14.4736         55
  14.4921         57
  14.5107         58
  14.5293         60
  14.5479         72
  14.5664         60
  14.5850         61
  14.6036         64
  14.6222         67
  14.6407         58
  14.6593         66
  14.6779         67
  14.6965         61
  14.7150         71
  14.7336         55
  14.7522         71
  14.7708         56
  14.7893         61
  14.8079         58
  14.8265         62
  14.8451         64
  14.8636         60
  14.8822         49
  14.9008         61
  14.9194         60
  14.9379         49
  14.9565         59
  14.9751         67
  14.9937         56
  15.0122         61
  15.0308         45
  15.0494         51
  15.0680         66
  15.0866         56
  15.1051         62
  15.1237         55
  15.1423         55
  15.1609         70
  15.1794         72
  15.1980         59
  15.2166         54
  15.2352         66
  15.2537         61
  15.2723         54
  15.2909         54
  15.3095         57
  15.3280         69
  15.3466         62
  15.3652         64
  15.3838         77
  15.4023         56
  15.4209         70
  15.4395         60
  15.4581         59
  15.4766         55
  15.4952         67
  15.5138         66
  15.5324         62
  15.5509         59
  15.5695         51
  15.5881         65
  15.6067         60
  15.6252         81
  15.6438         62
  15.6624         64
  15.6810         60
  15.6995         57
  15.7181         64
  15.7367         59
  15.7553         67
  15.7738         57
  15.7924         59
  15.8110         65
  15.8296         70
  15.8482         49
  15.8667         59
  15.8853         66
  15.9039         63
  15.9225         51
  15.9410         73
  15.9596         73
  15.9782         57
  15.9968         53
  16.0153         59
  16.0339         59
  16.0525         47
  16.0711         68
  16.0896         64
  16.1082         48
  16.1268         56
  16.1454         84
  16.1639         61
  16.1825         65
  16.2011         54
  16.2197         60
  16.2382         54
  16.2568         57
  16.2754         62
  16.2940         63
  16.3125         58
  16.3311         56
  16.3497         63
  16.3683         58
  16.3868         71
  16.4054         62
  16.4240         60
  16.4426         56
  16.4611         63
  16.4797         65
  16.4983         70
  16.5169         61
  16.5354         59
  16.5540         56
  16.5726         60
  16.5912         63
  16.6097         58
  16.6283         54
  16.6469         50
  16.6655         61
  16.6841         56
  16.7026         51
  16.7212         69
  16.7398         64
  16.7584         68
  16.7769         56
  16.7955         69
  16.8141         62
  16.8327         69
  16.8512         58
  16.8698         59
  16.8884         57
  16.9070         60
  16.9255         55
  16.9441         64
  16.9627         61
  16.9813         70
  16.9998         48
  17.0184         75
  17.0370         50
  17.0556         70
  17.0741         59
  17.0927         55
  17.1113         70
  17.1299         83
  17.1484         61
  17.1670         54
  17.1856         48
  17.2042         66
  17.2227         63
  17.2413         79
  17.2599         53
  17.2785         57
  17.2970         68
  17.3156         51
  17.3342         50
  17.3528         54
  17.3713         59
  17.3899         55
  17.4085         55
  17.4271         63
  17.4457         50
  17.4642         52
  17.4828         62
  17.5014         59
  17.5200         65
  17.5385         43
  17.5571         50
  17.5757         63
  17.5943         67
  17.6128         64
  17.6314         54
  17.6500         61
  17.6686         56
  17.6871         53
  17.7057         65
  17.7243         48
  17.7429         70
  17.7614         66
  17.7800         48
  17.7986         60
  17.8172         54
  17.8357         55
  17.8543         64
  17.8729         59
  17.8915         64
  17.9100         83
  17.9286         62
  17.9472         77
  17.9658         68
  17.9843         70
  18.0029         47
  18.0215         63
  18.0401         56
  18.0586         58
  18.0772         63
  18.0958         50
  18.1144         67
  18.1329         77
  18.1515         58
  18.1701         60
  18.1887         65
  18.2073         74
  18.2258         68
  18.2444         64
  18.2630         69
  18.2816         71
  18.3001         53
  18.3187         47
  18.3373         67
  18.3559         51
  18.3744         66
  18.3930         64
  18.4116         44
  18.4302         45
  18.4487         58
  18.4673         56
  18.4859         60
  18.5045         63
  18.5230         59
  18.5416         71
  18.5602         49
  18.5788         46
  18.5973         54
  18.6159         64
  18.6345         66
  18.6531         57
  18.6716         56
  18.6902         59
  18.7088         69
  18.7274         65
  18.7459         59
  18.7645         69
  18.7831         51
  18.8017         56
  18.8202         78
  18.8388         66
  18.8574         74
  18.8760         57
  18.8945         47
  18.9131         66
  18.9317         58
  18.9503         64
  18.9689         68
  18.9874         57
  19.0060         62
  19.0246         53
  19.0432         65
  19.0617         54
  19.0803         60
  19.0989         61
  19.1175         57
  19.1360         60
  19.1546         74
  19.1732         64
  19.1918         78
  19.2103         62
  19.2289         67
  19.2475         61
  19.2661         63
  19.2846         60
  19.3032         52
  19.3218         63
  19.3404         64
  19.3589         57
  19.3775         80
  19.3961         62
  19.4147         57
  19.4332         75
  19.4518         68
  19.4704         53
  19.4890         63
  19.5075         68
  19.5261         82
  19.5447         64
  19.5633         67
  19.5818         70
  19.6004         65
  19.6190         86
  19.6376         71
  19.6561         80
  19.6747         66
  19.6933         53
  19.7119         64
  19.7305         67
  19.7490         65
  19.7676         71
  19.7862         54
  19.8048         52
  19.8233         70
  19.8419         69
  19.8605         77
  19.8791         78
  19.8976         62
  19.9162         60
  19.9348         71
  19.9534         71
  19.9719         79
  19.9905         60
  20.0091         59
  20.0277         64
  20.0462         59
  20.0648         62
  20.0834         67
  20.1020         62
  20.1205         59
  20.1391         68
  20.1577         70
  20.1763         63
  20.1948         63
  20.2134         56
  20.2320         75
  20.2506         67
  20.2691         76
  20.2877         85
  20.3063         62
  20.3249         61
  20.3434         73
  20.3620         60
  20.3806         66
  20.3992         55
  20.4177         68
  20.4363         75
  20.4549         74
  20.4735         58
