; (content of file Y:\Sam\Apurva-07-20-2022\puck2\ML_20220720_36_SJD_0_LaB6-1min.raw)
_FILEVERSION = 3
_SAMPLE = ML_20220720_36_SJD_0_LaB6-1mi
_+SAMPLE = 
_SITE = USA
_USER = Administrator
_GONIOMETER_CODE = 20
; Goniometer : D8 theta/2theta, stage : Unknown
_ATTACHMENTS_CODE = 0
_GONIOMETER_RADIUS = 200.5
_FIXED_DIVSLIT = 0.6
_FIXED_SAMPLESLIT = 0
_SOLLER_SLITS = 2
_FIXED_DETSLIT = 9.55
_MONOCHROMATOR = 0
; Incident beam monochromator : None
_SOLLER_SLITS_2 = N
_THIN_FILM = N
_BETA_FILTER = Y
_FIXED_ANTISLIT = 5.89
_ANALYZER_CODE = 0
; Received beam analyzer : None
_DATEMEASURED = "25-Jul-2022 18:53:38"
_WL_UNIT = A
_WL1 = 1.5406
_WL2 = 1.54439
_WL3 = 1.39222
_WLRATIO = 0.5
_ANODE = Cu
_V4_INF_CREATOR = XRDWizard
_V4_INF_CREATOR_VERSION = V2.9.0.22
_V4_INF_WIZARD_VERSION = V2.9.0.22
_V4_INF_WIZARD_ADDINS = V2.9.0.22
_V4_INF_WIZARD_DOCTYPE = XRD
_V4_INF_OSUSER = McQueenLab
_V4_INF_USER = Administrator
_V4_INF_SITE = USA
_V4_INF_SAMPLEID = ML_20220720_36_SJD_0_LaB6-1mi

; Data for range 1
_DRIVE = COUPLED
_STEPTIME = 4.23
_STEPSIZE = 0.0185756
_STEPMODE = C
_START = 5
_THETA = 2.5
_2THETA = 5
_KHI = 0
_PHI = 0
_X = 0
_Y = 0
_Z = 0
_DETECTOR = 5
; Detector type : Unknown
_DETECTORSLIT = unkn
_AUX1 = 0
_AUX2 = 0
_AUX3 = 0
_TIMESTARTED = 15
_TEMP_RATE = -1
_TEMP_DELAY = -1
_KV = 40
_MA = 40
_RANGE_WL = 1.5406
_3DPLANE = 0
_V4_ADDITIONALDETECTOR = 257
_V4_PSD2THETA = 3.4354
_V4_PSDCHANNEL1 = 0
_V4_PSDAPERTURE = 12.68
_V4_PSDTYPE = 5
_V4_PSDFIXED = 0
_V4_COUNTERS_MASK = 4096
_V4_DRIVES_MASK = 0
_V4_ENCODERS_MASK = 0
_2THETACOUNTS = 1
; 2THETA  PSD
   5.0000        106
   5.0186         78
   5.0372         97
   5.0557         93
   5.0743         88
   5.0929         96
   5.1115         94
   5.1300        113
   5.1486         97
   5.1672         98
   5.1858         86
   5.2043        105
   5.2229         87
   5.2415         98
   5.2601         85
   5.2786         96
   5.2972         95
   5.3158         94
   5.3344         78
   5.3529        104
   5.3715         98
   5.3901         87
   5.4087         82
   5.4272         97
   5.4458         88
   5.4644         68
   5.4830         87
   5.5015         73
   5.5201         68
   5.5387         70
   5.5573         83
   5.5758         73
   5.5944         89
   5.6130         83
   5.6316         71
   5.6501         78
   5.6687         81
   5.6873         77
   5.7059         68
   5.7244         83
   5.7430         89
   5.7616         89
   5.7802         91
   5.7988         64
   5.8173         85
   5.8359         69
   5.8545         58
   5.8731         67
   5.8916         77
   5.9102         80
   5.9288         84
   5.9474         77
   5.9659         90
   5.9845         71
   6.0031         81
   6.0217         73
   6.0402         74
   6.0588         78
   6.0774         90
   6.0960         74
   6.1145         67
   6.1331         68
   6.1517         56
   6.1703         62
   6.1888         71
   6.2074         69
   6.2260         68
   6.2446         68
   6.2631         67
   6.2817         69
   6.3003         76
   6.3189         55
   6.3374         73
   6.3560         74
   6.3746         71
   6.3932         73
   6.4117         67
   6.4303         55
   6.4489         44
   6.4675         74
   6.4860         58
   6.5046         63
   6.5232         49
   6.5418         68
   6.5604         66
   6.5789         72
   6.5975         56
   6.6161         56
   6.6347         52
   6.6532         64
   6.6718         73
   6.6904         54
   6.7090         55
   6.7275         65
   6.7461         65
   6.7647         60
   6.7833         65
   6.8018         70
   6.8204         65
   6.8390         52
   6.8576         66
   6.8761         59
   6.8947         51
   6.9133         62
   6.9319         53
   6.9504         59
   6.9690         59
   6.9876         57
   7.0062         57
   7.0247         53
   7.0433         67
   7.0619         67
   7.0805         60
   7.0990         76
   7.1176         57
   7.1362         62
   7.1548         65
   7.1733         61
   7.1919         61
   7.2105         65
   7.2291         66
   7.2476         52
   7.2662         49
   7.2848         66
   7.3034         54
   7.3220         39
   7.3405         50
   7.3591         46
   7.3777         69
   7.3963         62
   7.4148         57
   7.4334         58
   7.4520         64
   7.4706         60
   7.4891         57
   7.5077         44
   7.5263         52
   7.5449         47
   7.5634         71
   7.5820         74
   7.6006         54
   7.6192         67
   7.6377         75
   7.6563         62
   7.6749         63
   7.6935         72
   7.7120         81
   7.7306         67
   7.7492         63
   7.7678         69
   7.7863         60
   7.8049         59
   7.8235         67
   7.8421         59
   7.8606         68
   7.8792         74
   7.8978         64
   7.9164         60
   7.9349         79
   7.9535         68
   7.9721         67
   7.9907         78
   8.0092         53
   8.0278         68
   8.0464         81
   8.0650         74
   8.0835         72
   8.1021         74
   8.1207         64
   8.1393         71
   8.1579         79
   8.1764         69
   8.1950         69
   8.2136         55
   8.2322         72
   8.2507         53
   8.2693         66
   8.2879         82
   8.3065         68
   8.3250         66
   8.3436         70
   8.3622         65
   8.3808         63
   8.3993         60
   8.4179         65
   8.4365         68
   8.4551         75
   8.4736         66
   8.4922         69
   8.5108         64
   8.5294         73
   8.5479         71
   8.5665         72
   8.5851         76
   8.6037         77
   8.6222         87
   8.6408         76
   8.6594         76
   8.6780         71
   8.6965         90
   8.7151         80
   8.7337         73
   8.7523         75
   8.7708         73
   8.7894         79
   8.8080         80
   8.8266         74
   8.8451         69
   8.8637         75
   8.8823         89
   8.9009         72
   8.9195         60
   8.9380         69
   8.9566         68
   8.9752         77
   8.9938         89
   9.0123         80
   9.0309         87
   9.0495         72
   9.0681         78
   9.0866         76
   9.1052         61
   9.1238         78
   9.1424         82
   9.1609         80
   9.1795         75
   9.1981         69
   9.2167         70
   9.2352         61
   9.2538         84
   9.2724         90
   9.2910         71
   9.3095         88
   9.3281         81
   9.3467         72
   9.3653         67
   9.3838         78
   9.4024         87
   9.4210         81
   9.4396         79
   9.4581         79
   9.4767         73
   9.4953         75
   9.5139         78
   9.5324         78
   9.5510         93
   9.5696        103
   9.5882         80
   9.6067         74
   9.6253         80
   9.6439         87
   9.6625         90
   9.6811         82
   9.6996         69
   9.7182         95
   9.7368         94
   9.7554         82
   9.7739         83
   9.7925         75
   9.8111         87
   9.8297         84
   9.8482         90
   9.8668         85
   9.8854        109
   9.9040        100
   9.9225         89
   9.9411         93
   9.9597         88
   9.9783         98
   9.9968         90
  10.0154         79
  10.0340         92
  10.0526         88
  10.0711         97
  10.0897         86
  10.1083        115
  10.1269         89
  10.1454        108
  10.1640         95
  10.1826         71
  10.2012         93
  10.2197         82
  10.2383        104
  10.2569         80
  10.2755         87
  10.2940         76
  10.3126         86
  10.3312         85
  10.3498         87
  10.3683         83
  10.3869         82
  10.4055        103
  10.4241         75
  10.4427         85
  10.4612        100
  10.4798         74
  10.4984         87
  10.5170         85
  10.5355         87
  10.5541         90
  10.5727         91
  10.5913         94
  10.6098         83
  10.6284         98
  10.6470         96
  10.6656         94
  10.6841         87
  10.7027         87
  10.7213         97
  10.7399         68
  10.7584         88
  10.7770         90
  10.7956         76
  10.8142         94
  10.8327        101
  10.8513         94
  10.8699         80
  10.8885         90
  10.9070         90
  10.9256         99
  10.9442         74
  10.9628         89
  10.9813         89
  10.9999         82
  11.0185         95
  11.0371         95
  11.0556         87
  11.0742        102
  11.0928         96
  11.1114         99
  11.1299         95
  11.1485         81
  11.1671         89
  11.1857         96
  11.2043         89
  11.2228         74
  11.2414         72
  11.2600         92
  11.2786         86
  11.2971        104
  11.3157         91
  11.3343         89
  11.3529         96
  11.3714         81
  11.3900         87
  11.4086         95
  11.4272         74
  11.4457         90
  11.4643         86
  11.4829         66
  11.5015         91
  11.5200         94
  11.5386         90
  11.5572         83
  11.5758         92
  11.5943         81
  11.6129         90
  11.6315         92
  11.6501         82
  11.6686        103
  11.6872         79
  11.7058         80
  11.7244         91
  11.7429         89
  11.7615         77
  11.7801         74
  11.7987         87
  11.8172         81
  11.8358         68
  11.8544         78
  11.8730         86
  11.8915         82
  11.9101        100
  11.9287         97
  11.9473         90
  11.9659         85
  11.9844        102
  12.0030         94
  12.0216         78
  12.0402        100
  12.0587         85
  12.0773         92
  12.0959         90
  12.1145         82
  12.1330         78
  12.1516         93
  12.1702         75
  12.1888         95
  12.2073         90
  12.2259         84
  12.2445         69
  12.2631         70
  12.2816         85
  12.3002         78
  12.3188         65
  12.3374         79
  12.3559         89
  12.3745         80
  12.3931         69
  12.4117         73
  12.4302         87
  12.4488         73
  12.4674         69
  12.4860         80
  12.5045         90
  12.5231         75
  12.5417         76
  12.5603         89
  12.5788         79
  12.5974         69
  12.6160         69
  12.6346         76
  12.6531         74
  12.6717         72
  12.6903         64
  12.7089         78
  12.7274         80
  12.7460         86
  12.7646         66
  12.7832         69
  12.8018         69
  12.8203         73
  12.8389         81
  12.8575         78
  12.8761         80
  12.8946         80
  12.9132         66
  12.9318         87
  12.9504         80
  12.9689         88
  12.9875         77
  13.0061         74
  13.0247         75
  13.0432         75
  13.0618         76
  13.0804         63
  13.0990         86
  13.1175         85
  13.1361         60
  13.1547         72
  13.1733         66
  13.1918         77
  13.2104         79
  13.2290         83
  13.2476         91
  13.2661         90
  13.2847         77
  13.3033         93
  13.3219         63
  13.3404         80
  13.3590         78
  13.3776         75
  13.3962         68
  13.4147         93
  13.4333         67
  13.4519         73
  13.4705         75
  13.4890         77
  13.5076         70
  13.5262         76
  13.5448         55
  13.5634         68
  13.5819         67
  13.6005         65
  13.6191         54
  13.6377         76
  13.6562         81
  13.6748         69
  13.6934         63
  13.7120         75
  13.7305         70
  13.7491         70
  13.7677         71
  13.7863         76
  13.8048         69
  13.8234         68
  13.8420         56
  13.8606         62
  13.8791         51
  13.8977         70
  13.9163         70
  13.9349         63
  13.9534         75
  13.9720         58
  13.9906         70
  14.0092         66
  14.0277         81
  14.0463         67
  14.0649         74
  14.0835         84
  14.1020         76
  14.1206         51
  14.1392         54
  14.1578         69
  14.1763         62
  14.1949         63
  14.2135         83
  14.2321         63
  14.2506         61
  14.2692         62
  14.2878         78
  14.3064         61
  14.3250         66
  14.3435         63
  14.3621         61
  14.3807         61
  14.3993         67
  14.4178         68
  14.4364         59
  14.4550         69
  14.4736         59
  14.4921         77
  14.5107         69
  14.5293         54
  14.5479         73
  14.5664         49
  14.5850         57
  14.6036         50
  14.6222         59
  14.6407         67
  14.6593         64
  14.6779         63
  14.6965         64
  14.7150         68
  14.7336         63
  14.7522         65
  14.7708         74
  14.7893         54
  14.8079         70
  14.8265         70
  14.8451         61
  14.8636         64
  14.8822         61
  14.9008         55
  14.9194         63
  14.9379         63
  14.9565         64
  14.9751         53
  14.9937         66
  15.0122         53
  15.0308         64
  15.0494         59
  15.0680         63
  15.0866         60
  15.1051         54
  15.1237         57
  15.1423         64
  15.1609         63
  15.1794         59
  15.1980         68
  15.2166         69
  15.2352         61
  15.2537         84
  15.2723         64
  15.2909         64
  15.3095         63
  15.3280         53
  15.3466         65
  15.3652         62
  15.3838         59
  15.4023         67
  15.4209         67
  15.4395         58
  15.4581         65
  15.4766         49
  15.4952         68
  15.5138         73
  15.5324         62
  15.5509         59
  15.5695         73
  15.5881         52
  15.6067         70
  15.6252         61
  15.6438         66
  15.6624         77
  15.6810         61
  15.6995         55
  15.7181         67
  15.7367         63
  15.7553         59
  15.7738         79
  15.7924         59
  15.8110         60
  15.8296         72
  15.8482         59
  15.8667         62
  15.8853         47
  15.9039         52
  15.9225         58
  15.9410         57
  15.9596         59
  15.9782         48
  15.9968         57
  16.0153         49
  16.0339         70
  16.0525         61
  16.0711         65
  16.0896         67
  16.1082         56
  16.1268         48
  16.1454         45
  16.1639         47
  16.1825         55
  16.2011         56
  16.2197         67
  16.2382         56
  16.2568         43
  16.2754         67
  16.2940         53
  16.3125         57
  16.3311         48
  16.3497         58
  16.3683         64
  16.3868         51
  16.4054         59
  16.4240         57
  16.4426         62
  16.4611         56
  16.4797         51
  16.4983         66
  16.5169         64
  16.5354         63
  16.5540         62
  16.5726         58
  16.5912         68
  16.6097         64
  16.6283         65
  16.6469         57
  16.6655         50
  16.6841         59
  16.7026         62
  16.7212         54
  16.7398         69
  16.7584         52
  16.7769         60
  16.7955         57
  16.8141         63
  16.8327         61
  16.8512         63
  16.8698         55
  16.8884         62
  16.9070         50
  16.9255         59
  16.9441         51
  16.9627         61
  16.9813         53
  16.9998         56
  17.0184         51
  17.0370         59
  17.0556         64
  17.0741         69
  17.0927         65
  17.1113         57
  17.1299         46
  17.1484         60
  17.1670         47
  17.1856         51
  17.2042         72
  17.2227         61
  17.2413         53
  17.2599         57
  17.2785         61
  17.2970         58
  17.3156         62
  17.3342         53
  17.3528         51
  17.3713         58
  17.3899         72
  17.4085         68
  17.4271         68
  17.4457         46
  17.4642         58
  17.4828         55
  17.5014         71
  17.5200         66
  17.5385         69
  17.5571         53
  17.5757         59
  17.5943         57
  17.6128         58
  17.6314         63
  17.6500         50
  17.6686         55
  17.6871         63
  17.7057         70
  17.7243         59
  17.7429         60
  17.7614         63
  17.7800         54
  17.7986         60
  17.8172         55
  17.8357         59
  17.8543         57
  17.8729         56
  17.8915         53
  17.9100         49
  17.9286         53
  17.9472         58
  17.9658         51
  17.9843         59
  18.0029         56
  18.0215         47
  18.0401         62
  18.0586         51
  18.0772         68
  18.0958         81
  18.1144         60
  18.1329         75
  18.1515         56
  18.1701         72
  18.1887         52
  18.2073         58
  18.2258         69
  18.2444         66
  18.2630         71
  18.2816         78
  18.3001         86
  18.3187         61
  18.3373         59
  18.3559         68
  18.3744         66
  18.3930         59
  18.4116         80
  18.4302         63
  18.4487         70
  18.4673         59
  18.4859         59
  18.5045         62
  18.5230         66
  18.5416         59
  18.5602         65
  18.5788         63
  18.5973         68
  18.6159         64
  18.6345         77
  18.6531         46
  18.6716         52
  18.6902         54
  18.7088         53
  18.7274         61
  18.7459         62
  18.7645         69
  18.7831         47
  18.8017         54
  18.8202         71
  18.8388         79
  18.8574         58
  18.8760         66
  18.8945         72
  18.9131         56
  18.9317         63
  18.9503         73
  18.9689         75
  18.9874         63
  19.0060         71
  19.0246         74
  19.0432         55
  19.0617         66
  19.0803         49
  19.0989         72
  19.1175         59
  19.1360         66
  19.1546         60
  19.1732         65
  19.1918         65
  19.2103         65
  19.2289         64
  19.2475         65
  19.2661         63
  19.2846         65
  19.3032         61
  19.3218         65
  19.3404         63
  19.3589         53
  19.3775         62
  19.3961         66
  19.4147         73
  19.4332         70
  19.4518         74
  19.4704         61
  19.4890         65
  19.5075         58
  19.5261         68
  19.5447         64
  19.5633         65
  19.5818         52
  19.6004         64
  19.6190         57
  19.6376         68
  19.6561         67
  19.6747         67
  19.6933         72
  19.7119         61
  19.7305         72
  19.7490         66
  19.7676         58
  19.7862         59
  19.8048         61
  19.8233         70
  19.8419         63
  19.8605         70
  19.8791         54
  19.8976         66
  19.9162         64
  19.9348         63
  19.9534         53
  19.9719         65
  19.9905         55
  20.0091         76
  20.0277         65
  20.0462         63
  20.0648         61
  20.0834         52
  20.1020         73
  20.1205         65
  20.1391         54
  20.1577         65
  20.1763         61
  20.1948         65
  20.2134         69
  20.2320         64
  20.2506         71
  20.2691         70
  20.2877         68
  20.3063         64
  20.3249         45
  20.3434         53
  20.3620         66
  20.3806         59
  20.3992         80
  20.4177         59
  20.4363         77
  20.4549         55
  20.4735         72
