; (content of file Y:\Sam\Apurva-07-20-2022\puck2\ML_20220720_10_SJD_0_LaB6-1min.raw)
_FILEVERSION = 3
_SAMPLE = ML_20220720_10_SJD_0_LaB6-1mi
_+SAMPLE = 
_SITE = USA
_USER = Administrator
_GONIOMETER_CODE = 20
; Goniometer : D8 theta/2theta, stage : Unknown
_ATTACHMENTS_CODE = 0
_GONIOMETER_RADIUS = 200.5
_FIXED_DIVSLIT = 0.6
_FIXED_SAMPLESLIT = 0
_SOLLER_SLITS = 2
_FIXED_DETSLIT = 9.55
_MONOCHROMATOR = 0
; Incident beam monochromator : None
_SOLLER_SLITS_2 = N
_THIN_FILM = N
_BETA_FILTER = Y
_FIXED_ANTISLIT = 5.89
_ANALYZER_CODE = 0
; Received beam analyzer : None
_DATEMEASURED = "25-Jul-2022 18:04:57"
_WL_UNIT = A
_WL1 = 1.5406
_WL2 = 1.54439
_WL3 = 1.39222
_WLRATIO = 0.5
_ANODE = Cu
_V4_INF_CREATOR = XRDWizard
_V4_INF_CREATOR_VERSION = V2.9.0.22
_V4_INF_WIZARD_VERSION = V2.9.0.22
_V4_INF_WIZARD_ADDINS = V2.9.0.22
_V4_INF_WIZARD_DOCTYPE = XRD
_V4_INF_OSUSER = McQueenLab
_V4_INF_USER = Administrator
_V4_INF_SITE = USA
_V4_INF_SAMPLEID = ML_20220720_10_SJD_0_LaB6-1mi

; Data for range 1
_DRIVE = COUPLED
_STEPTIME = 4.23
_STEPSIZE = 0.0185756
_STEPMODE = C
_START = 5
_THETA = 2.5
_2THETA = 5
_KHI = 0
_PHI = 0
_X = 0
_Y = 0
_Z = 0
_DETECTOR = 5
; Detector type : Unknown
_DETECTORSLIT = unkn
_AUX1 = 0
_AUX2 = 0
_AUX3 = 0
_TIMESTARTED = 16
_TEMP_RATE = -1
_TEMP_DELAY = -1
_KV = 40
_MA = 40
_RANGE_WL = 1.5406
_3DPLANE = 0
_V4_ADDITIONALDETECTOR = 257
_V4_PSD2THETA = 3.3766
_V4_PSDCHANNEL1 = 0
_V4_PSDAPERTURE = 12.68
_V4_PSDTYPE = 5
_V4_PSDFIXED = 0
_V4_COUNTERS_MASK = 4096
_V4_DRIVES_MASK = 0
_V4_ENCODERS_MASK = 0
_2THETACOUNTS = 1
; 2THETA  PSD
   5.0000         97
   5.0186         70
   5.0372         94
   5.0557         96
   5.0743         86
   5.0929         95
   5.1115        110
   5.1300         88
   5.1486         85
   5.1672        106
   5.1858        101
   5.2043        104
   5.2229         86
   5.2415         97
   5.2601         82
   5.2786         94
   5.2972         96
   5.3158         87
   5.3344         84
   5.3529        102
   5.3715         89
   5.3901         61
   5.4087         77
   5.4272         97
   5.4458         95
   5.4644         72
   5.4830         96
   5.5015        106
   5.5201         80
   5.5387         75
   5.5573         82
   5.5758        102
   5.5944         62
   5.6130         90
   5.6316         86
   5.6501         85
   5.6687         80
   5.6873         75
   5.7059         87
   5.7244         95
   5.7430         87
   5.7616         71
   5.7802         71
   5.7988         94
   5.8173         83
   5.8359         80
   5.8545         73
   5.8731         78
   5.8916         64
   5.9102         68
   5.9288         70
   5.9474         73
   5.9659         79
   5.9845         71
   6.0031         70
   6.0217         70
   6.0402         70
   6.0588         67
   6.0774         71
   6.0960         72
   6.1145         76
   6.1331         68
   6.1517         82
   6.1703         73
   6.1888         63
   6.2074         62
   6.2260         62
   6.2446         65
   6.2631         78
   6.2817         77
   6.3003         77
   6.3189         59
   6.3374         64
   6.3560         65
   6.3746         71
   6.3932         74
   6.4117         72
   6.4303         64
   6.4489         71
   6.4675         53
   6.4860         54
   6.5046         57
   6.5232         64
   6.5418         70
   6.5604         62
   6.5789         52
   6.5975         66
   6.6161         69
   6.6347         55
   6.6532         66
   6.6718         73
   6.6904         51
   6.7090         63
   6.7275         70
   6.7461         57
   6.7647         62
   6.7833         81
   6.8018         70
   6.8204         67
   6.8390         71
   6.8576         61
   6.8761         53
   6.8947         63
   6.9133         59
   6.9319         77
   6.9504         71
   6.9690         54
   6.9876         63
   7.0062         43
   7.0247         67
   7.0433         66
   7.0619         59
   7.0805         71
   7.0990         59
   7.1176         51
   7.1362         53
   7.1548         50
   7.1733         52
   7.1919         68
   7.2105         55
   7.2291         63
   7.2476         46
   7.2662         66
   7.2848         51
   7.3034         56
   7.3220         57
   7.3405         61
   7.3591         62
   7.3777         53
   7.3963         68
   7.4148         59
   7.4334         51
   7.4520         54
   7.4706         60
   7.4891         72
   7.5077         56
   7.5263         59
   7.5449         57
   7.5634         69
   7.5820         68
   7.6006         63
   7.6192         61
   7.6377         47
   7.6563         56
   7.6749         67
   7.6935         70
   7.7120         71
   7.7306         70
   7.7492         85
   7.7678         66
   7.7863         68
   7.8049         58
   7.8235         69
   7.8421         68
   7.8606         62
   7.8792         67
   7.8978         70
   7.9164         48
   7.9349         68
   7.9535         64
   7.9721         62
   7.9907         61
   8.0092         68
   8.0278         65
   8.0464         70
   8.0650         66
   8.0835         72
   8.1021         61
   8.1207         75
   8.1393         68
   8.1579         63
   8.1764         67
   8.1950         66
   8.2136         84
   8.2322         58
   8.2507         72
   8.2693         69
   8.2879         69
   8.3065         69
   8.3250         78
   8.3436         68
   8.3622         74
   8.3808         72
   8.3993         77
   8.4179         77
   8.4365         56
   8.4551         60
   8.4736         63
   8.4922         69
   8.5108         76
   8.5294         79
   8.5479         79
   8.5665         46
   8.5851         71
   8.6037         67
   8.6222         73
   8.6408         70
   8.6594         72
   8.6780         78
   8.6965         72
   8.7151         64
   8.7337         68
   8.7523         93
   8.7708         70
   8.7894         69
   8.8080         74
   8.8266         71
   8.8451         83
   8.8637         77
   8.8823         85
   8.9009         72
   8.9195         71
   8.9380         66
   8.9566         67
   8.9752         75
   8.9938         71
   9.0123         86
   9.0309         82
   9.0495         90
   9.0681         94
   9.0866         77
   9.1052         86
   9.1238         81
   9.1424         88
   9.1609         76
   9.1795         96
   9.1981         75
   9.2167         74
   9.2352         89
   9.2538         86
   9.2724         76
   9.2910         87
   9.3095         66
   9.3281         74
   9.3467         81
   9.3653         84
   9.3838         82
   9.4024         83
   9.4210         80
   9.4396         83
   9.4581         83
   9.4767         76
   9.4953         66
   9.5139         86
   9.5324         78
   9.5510         78
   9.5696         76
   9.5882         79
   9.6067         81
   9.6253         87
   9.6439         62
   9.6625         94
   9.6811         87
   9.6996         90
   9.7182         89
   9.7368         82
   9.7554         77
   9.7739         87
   9.7925         82
   9.8111         84
   9.8297         71
   9.8482         79
   9.8668         77
   9.8854         99
   9.9040         99
   9.9225         87
   9.9411         95
   9.9597         95
   9.9783         64
   9.9968         76
  10.0154         73
  10.0340         75
  10.0526         79
  10.0711         96
  10.0897         92
  10.1083         92
  10.1269         86
  10.1454         95
  10.1640         88
  10.1826         86
  10.2012         95
  10.2197         78
  10.2383         84
  10.2569         98
  10.2755         86
  10.2940         83
  10.3126        114
  10.3312         91
  10.3498         89
  10.3683         84
  10.3869         89
  10.4055         83
  10.4241         74
  10.4427         91
  10.4612         87
  10.4798         79
  10.4984         87
  10.5170         95
  10.5355         81
  10.5541         81
  10.5727         72
  10.5913         74
  10.6098         74
  10.6284         93
  10.6470         73
  10.6656         73
  10.6841         94
  10.7027         86
  10.7213         81
  10.7399         85
  10.7584         84
  10.7770         71
  10.7956         83
  10.8142         72
  10.8327         80
  10.8513         80
  10.8699         84
  10.8885         84
  10.9070         85
  10.9256         95
  10.9442         88
  10.9628         94
  10.9813         78
  10.9999         84
  11.0185        104
  11.0371         87
  11.0556         89
  11.0742         87
  11.0928         83
  11.1114        115
  11.1299         95
  11.1485         99
  11.1671         83
  11.1857         91
  11.2043         90
  11.2228         70
  11.2414         90
  11.2600         87
  11.2786         75
  11.2971         93
  11.3157         87
  11.3343         85
  11.3529        101
  11.3714         91
  11.3900         87
  11.4086         87
  11.4272         85
  11.4457        103
  11.4643         78
  11.4829         75
  11.5015         87
  11.5200         92
  11.5386         92
  11.5572         84
  11.5758        102
  11.5943         93
  11.6129         93
  11.6315         99
  11.6501         84
  11.6686         99
  11.6872         91
  11.7058         86
  11.7244        104
  11.7429         92
  11.7615         73
  11.7801         85
  11.7987         97
  11.8172         84
  11.8358         97
  11.8544         84
  11.8730         84
  11.8915         76
  11.9101         91
  11.9287         83
  11.9473         78
  11.9659         84
  11.9844         83
  12.0030         87
  12.0216         77
  12.0402         77
  12.0587         73
  12.0773         85
  12.0959         75
  12.1145         75
  12.1330         78
  12.1516         81
  12.1702         86
  12.1888         84
  12.2073         73
  12.2259         77
  12.2445         90
  12.2631         91
  12.2816         96
  12.3002         88
  12.3188         83
  12.3374         75
  12.3559         67
  12.3745         74
  12.3931         67
  12.4117         87
  12.4302         79
  12.4488         64
  12.4674         78
  12.4860         88
  12.5045         79
  12.5231         57
  12.5417         72
  12.5603         99
  12.5788         81
  12.5974         78
  12.6160         81
  12.6346         78
  12.6531         78
  12.6717         70
  12.6903         96
  12.7089         66
  12.7274         85
  12.7460         75
  12.7646         73
  12.7832         83
  12.8018         75
  12.8203         73
  12.8389         87
  12.8575         68
  12.8761         84
  12.8946         63
  12.9132         86
  12.9318         75
  12.9504         67
  12.9689         75
  12.9875         81
  13.0061         81
  13.0247         69
  13.0432         64
  13.0618         82
  13.0804         67
  13.0990         77
  13.1175         76
  13.1361         78
  13.1547         64
  13.1733         70
  13.1918         86
  13.2104         81
  13.2290         66
  13.2476         70
  13.2661         81
  13.2847         73
  13.3033         74
  13.3219         85
  13.3404         78
  13.3590         82
  13.3776         63
  13.3962         75
  13.4147         82
  13.4333         85
  13.4519         73
  13.4705         76
  13.4890         64
  13.5076         70
  13.5262         62
  13.5448         69
  13.5634         80
  13.5819         80
  13.6005         82
  13.6191         70
  13.6377         63
  13.6562         59
  13.6748         62
  13.6934         76
  13.7120         71
  13.7305         79
  13.7491         83
  13.7677         73
  13.7863         53
  13.8048         95
  13.8234         77
  13.8420         65
  13.8606         70
  13.8791         83
  13.8977         55
  13.9163         60
  13.9349         75
  13.9534         74
  13.9720         50
  13.9906         72
  14.0092         73
  14.0277         75
  14.0463         63
  14.0649         66
  14.0835         73
  14.1020         53
  14.1206         67
  14.1392         58
  14.1578         68
  14.1763         66
  14.1949         63
  14.2135         52
  14.2321         65
  14.2506         67
  14.2692         60
  14.2878         60
  14.3064         62
  14.3250         55
  14.3435         64
  14.3621         57
  14.3807         66
  14.3993         77
  14.4178         76
  14.4364         65
  14.4550         64
  14.4736         61
  14.4921         66
  14.5107         63
  14.5293         74
  14.5479         58
  14.5664         71
  14.5850         59
  14.6036         57
  14.6222         53
  14.6407         57
  14.6593         62
  14.6779         55
  14.6965         64
  14.7150         63
  14.7336         54
  14.7522         63
  14.7708         59
  14.7893         57
  14.8079         67
  14.8265         59
  14.8451         51
  14.8636         60
  14.8822         51
  14.9008         57
  14.9194         60
  14.9379         60
  14.9565         73
  14.9751         67
  14.9937         58
  15.0122         60
  15.0308         64
  15.0494         62
  15.0680         75
  15.0866         77
  15.1051         58
  15.1237         59
  15.1423         63
  15.1609         79
  15.1794         70
  15.1980         51
  15.2166         68
  15.2352         71
  15.2537         64
  15.2723         55
  15.2909         64
  15.3095         67
  15.3280         65
  15.3466         72
  15.3652         62
  15.3838         59
  15.4023         55
  15.4209         69
  15.4395         63
  15.4581         64
  15.4766         65
  15.4952         61
  15.5138         47
  15.5324         76
  15.5509         75
  15.5695         63
  15.5881         59
  15.6067         55
  15.6252         58
  15.6438         67
  15.6624         52
  15.6810         78
  15.6995         58
  15.7181         61
  15.7367         68
  15.7553         59
  15.7738         56
  15.7924         48
  15.8110         62
  15.8296         51
  15.8482         49
  15.8667         56
  15.8853         57
  15.9039         56
  15.9225         63
  15.9410         66
  15.9596         86
  15.9782         64
  15.9968         54
  16.0153         41
  16.0339         61
  16.0525         68
  16.0711         61
  16.0896         53
  16.1082         52
  16.1268         52
  16.1454         60
  16.1639         56
  16.1825         62
  16.2011         73
  16.2197         53
  16.2382         55
  16.2568         58
  16.2754         68
  16.2940         61
  16.3125         41
  16.3311         59
  16.3497         67
  16.3683         63
  16.3868         58
  16.4054         66
  16.4240         56
  16.4426         82
  16.4611         62
  16.4797         59
  16.4983         52
  16.5169         54
  16.5354         53
  16.5540         75
  16.5726         58
  16.5912         70
  16.6097         63
  16.6283         68
  16.6469         59
  16.6655         62
  16.6841         61
  16.7026         61
  16.7212         55
  16.7398         62
  16.7584         49
  16.7769         52
  16.7955         71
  16.8141         74
  16.8327         66
  16.8512         67
  16.8698         63
  16.8884         55
  16.9070         64
  16.9255         53
  16.9441         56
  16.9627         64
  16.9813         63
  16.9998         56
  17.0184         64
  17.0370         59
  17.0556         48
  17.0741         62
  17.0927         73
  17.1113         53
  17.1299         57
  17.1484         52
  17.1670         62
  17.1856         65
  17.2042         56
  17.2227         55
  17.2413         56
  17.2599         74
  17.2785         63
  17.2970         54
  17.3156         53
  17.3342         62
  17.3528         75
  17.3713         47
  17.3899         39
  17.4085         78
  17.4271         67
  17.4457         59
  17.4642         54
  17.4828         73
  17.5014         53
  17.5200         64
  17.5385         64
  17.5571         70
  17.5757         65
  17.5943         60
  17.6128         57
  17.6314         67
  17.6500         59
  17.6686         56
  17.6871         53
  17.7057         53
  17.7243         57
  17.7429         66
  17.7614         60
  17.7800         64
  17.7986         59
  17.8172         57
  17.8357         65
  17.8543         48
  17.8729         44
  17.8915         45
  17.9100         68
  17.9286         52
  17.9472         59
  17.9658         54
  17.9843         51
  18.0029         52
  18.0215         60
  18.0401         60
  18.0586         58
  18.0772         57
  18.0958         65
  18.1144         60
  18.1329         65
  18.1515         58
  18.1701         63
  18.1887         64
  18.2073         52
  18.2258         56
  18.2444         51
  18.2630         50
  18.2816         50
  18.3001         56
  18.3187         68
  18.3373         61
  18.3559         70
  18.3744         55
  18.3930         68
  18.4116         61
  18.4302         52
  18.4487         44
  18.4673         73
  18.4859         61
  18.5045         68
  18.5230         63
  18.5416         54
  18.5602         70
  18.5788         71
  18.5973         63
  18.6159         59
  18.6345         71
  18.6531         66
  18.6716         62
  18.6902         65
  18.7088         50
  18.7274         65
  18.7459         62
  18.7645         64
  18.7831         70
  18.8017         67
  18.8202         50
  18.8388         56
  18.8574         62
  18.8760         57
  18.8945         58
  18.9131         74
  18.9317         56
  18.9503         71
  18.9689         60
  18.9874         70
  19.0060         67
  19.0246         67
  19.0432         78
  19.0617         69
  19.0803         64
  19.0989         61
  19.1175         68
  19.1360         53
  19.1546         65
  19.1732         64
  19.1918         63
  19.2103         71
  19.2289         78
  19.2475         66
  19.2661         58
  19.2846         71
  19.3032         64
  19.3218         69
  19.3404         61
  19.3589         65
  19.3775         83
  19.3961         68
  19.4147         66
  19.4332         56
  19.4518         65
  19.4704         72
  19.4890         74
  19.5075         63
  19.5261         54
  19.5447         54
  19.5633         56
  19.5818         63
  19.6004         61
  19.6190         65
  19.6376         57
  19.6561         57
  19.6747         66
  19.6933         59
  19.7119         63
  19.7305         79
  19.7490         59
  19.7676         62
  19.7862         66
  19.8048         64
  19.8233         68
  19.8419         64
  19.8605         69
  19.8791         62
  19.8976         60
  19.9162         85
  19.9348         80
  19.9534         75
  19.9719         66
  19.9905         73
  20.0091         62
  20.0277         76
  20.0462         65
  20.0648         65
  20.0834         81
  20.1020         85
  20.1205         81
  20.1391         76
  20.1577         54
  20.1763         69
  20.1948         64
  20.2134         64
  20.2320         68
  20.2506         63
  20.2691         81
  20.2877         66
  20.3063         55
  20.3249         74
  20.3434         63
  20.3620         71
  20.3806         78
  20.3992         72
  20.4177         72
  20.4363         67
  20.4549         71
  20.4735         69
