;,2THETA,
5.0000,133
5.0186,139
5.0372,127
5.0557,135
5.0743,132
5.0929,123
5.1115,121
5.1300,122
5.1486,144
5.1672,135
5.1858,132
5.2043,105
5.2229,107
5.2415,113
5.2601,123
5.2786,148
5.2972,100
5.3158,113
5.3344,131
5.3529,123
5.3715,116
5.3901,120
5.4087,119
5.4272,103
5.4458,112
5.4644,108
5.4830,142
5.5015,113
5.5201,106
5.5387,130
5.5573,127
5.5758,99
5.5944,99
5.6130,125
5.6316,107
5.6501,106
5.6687,111
5.6873,102
5.7059,137
5.7244,99
5.7430,83
5.7616,98
5.7802,100
5.7988,119
5.8173,106
5.8359,105
5.8545,115
5.8731,106
5.8916,101
5.9102,90
5.9288,124
5.9474,116
5.9659,121
5.9845,94
6.0031,116
6.0217,118
6.0402,123
6.0588,127
6.0774,92
6.0960,96
6.1145,81
6.1331,96
6.1517,75
6.1703,102
6.1888,98
6.2074,80
6.2260,71
6.2446,87
6.2631,108
6.2817,93
6.3003,98
6.3189,96
6.3374,92
6.3560,96
6.3746,79
6.3932,87
6.4117,99
6.4303,75
6.4489,94
6.4675,86
6.4860,99
6.5046,62
6.5232,86
6.5418,82
6.5604,98
6.5789,96
6.5975,86
6.6161,68
6.6347,94
6.6532,97
6.6718,85
6.6904,106
6.7090,91
6.7275,82
6.7461,69
6.7647,99
6.7833,78
6.8018,85
6.8204,93
6.8390,88
6.8576,80
6.8761,74
6.8947,74
6.9133,73
6.9319,81
6.9504,79
6.9690,91
6.9876,75
7.0062,104
7.0247,90
7.0433,75
7.0619,105
7.0805,70
7.0990,63
7.1176,78
7.1362,86
7.1548,60
7.1733,80
7.1919,80
7.2105,87
7.2291,67
7.2476,67
7.2662,84
7.2848,91
7.3034,85
7.3220,81
7.3405,83
7.3591,79
7.3777,92
7.3963,91
7.4148,89
7.4334,75
7.4520,90
7.4706,82
7.4891,90
7.5077,102
7.5263,82
7.5449,68
7.5634,76
7.5820,97
7.6006,89
7.6192,88
7.6377,91
7.6563,82
7.6749,71
7.6935,96
7.7120,99
7.7306,73
7.7492,94
7.7678,92
7.7863,84
7.8049,101
7.8235,97
7.8421,92
7.8606,80
7.8792,90
7.8978,82
7.9164,91
7.9349,90
7.9535,87
7.9721,91
7.9907,99
8.0092,103
8.0278,95
8.0464,109
8.0650,100
8.0835,82
8.1021,82
8.1207,90
8.1393,93
8.1579,98
8.1764,93
8.1950,104
8.2136,89
8.2322,93
8.2507,87
8.2693,101
8.2879,86
8.3065,106
8.3250,82
8.3436,111
8.3622,94
8.3808,96
8.3993,102
8.4179,98
8.4365,106
8.4551,101
8.4736,100
8.4922,88
8.5108,88
8.5294,101
8.5479,93
8.5665,95
8.5851,85
8.6037,90
8.6222,103
8.6408,101
8.6594,96
8.6780,103
8.6965,95
8.7151,105
8.7337,88
8.7523,105
8.7708,102
8.7894,101
8.8080,103
8.8266,88
8.8451,96
8.8637,90
8.8823,122
8.9009,98
8.9195,100
8.9380,104
8.9566,94
8.9752,81
8.9938,83
9.0123,112
9.0309,81
9.0495,93
9.0681,85
9.0866,104
9.1052,104
9.1238,116
9.1424,120
9.1609,75
9.1795,128
9.1981,99
9.2167,98
9.2352,121
9.2538,120
9.2724,97
9.2910,110
9.3095,96
9.3281,105
9.3467,120
9.3653,104
9.3838,119
9.4024,98
9.4210,131
9.4396,121
9.4581,116
9.4767,96
9.4953,104
9.5139,122
9.5324,121
9.5510,97
9.5696,119
9.5882,101
9.6067,107
9.6253,109
9.6439,90
9.6625,118
9.6811,101
9.6996,113
9.7182,122
9.7368,104
9.7554,118
9.7739,117
9.7925,107
9.8111,133
9.8297,112
9.8482,130
9.8668,119
9.8854,119
9.9040,117
9.9225,113
9.9411,109
9.9597,107
9.9783,133
9.9968,128
10.0154,125
10.0340,125
10.0526,131
10.0711,116
10.0897,94
10.1083,102
10.1269,129
10.1454,123
10.1640,102
10.1826,107
10.2012,132
10.2197,115
10.2383,120
10.2569,143
10.2755,125
10.2940,119
10.3126,125
10.3312,125
10.3498,126
10.3683,125
10.3869,101
10.4055,107
10.4241,97
10.4427,122
10.4612,114
10.4798,109
10.4984,106
10.5170,126
10.5355,135
10.5541,102
10.5727,125
10.5913,129
10.6098,119
10.6284,132
10.6470,121
10.6656,106
10.6841,108
10.7027,119
10.7213,121
10.7399,125
10.7584,116
10.7770,117
10.7956,110
10.8142,124
10.8327,109
10.8513,130
10.8699,128
10.8885,144
10.9070,123
10.9256,132
10.9442,107
10.9628,106
10.9813,129
10.9999,122
11.0185,114
11.0371,130
11.0556,111
11.0742,120
11.0928,114
11.1114,131
11.1299,103
11.1485,102
11.1671,126
11.1857,108
11.2043,121
11.2228,118
11.2414,105
11.2600,107
11.2786,118
11.2971,103
11.3157,120
11.3343,113
11.3529,125
11.3714,110
11.3900,123
11.4086,111
11.4272,108
11.4457,114
11.4643,116
11.4829,118
11.5015,114
11.5200,122
11.5386,135
11.5572,123
11.5758,109
11.5943,113
11.6129,116
11.6315,120
11.6501,131
11.6686,116
11.6872,112
11.7058,117
11.7244,91
11.7429,107
11.7615,133
11.7801,104
11.7987,128
11.8172,117
11.8358,121
11.8544,102
11.8730,109
11.8915,110
11.9101,98
11.9287,120
11.9473,114
11.9659,93
11.9844,113
12.0030,103
12.0216,128
12.0402,104
12.0587,104
12.0773,118
12.0959,114
12.1145,127
12.1330,103
12.1516,115
12.1702,115
12.1888,108
12.2073,107
12.2259,96
12.2445,102
12.2631,119
12.2816,110
12.3002,105
12.3188,120
12.3374,118
12.3559,100
12.3745,107
12.3931,123
12.4117,95
12.4302,98
12.4488,115
12.4674,110
12.4860,113
12.5045,118
12.5231,111
12.5417,120
12.5603,94
12.5788,112
12.5974,104
12.6160,119
12.6346,86
12.6531,106
12.6717,114
12.6903,116
12.7089,92
12.7274,86
12.7460,94
12.7646,111
12.7832,98
12.8018,110
12.8203,114
12.8389,82
12.8575,121
12.8761,111
12.8946,104
12.9132,113
12.9318,94
12.9504,105
12.9689,99
12.9875,102
13.0061,85
13.0247,112
13.0432,103
13.0618,77
13.0804,97
13.0990,98
13.1175,99
13.1361,85
13.1547,109
13.1733,122
13.1918,93
13.2104,89
13.2290,102
13.2476,92
13.2661,85
13.2847,106
13.3033,98
13.3219,102
13.3404,113
13.3590,119
13.3776,86
13.3962,89
13.4147,97
13.4333,102
13.4519,102
13.4705,102
13.4890,103
13.5076,108
13.5262,88
13.5448,79
13.5634,95
13.5819,76
13.6005,113
13.6191,94
13.6377,114
13.6562,91
13.6748,94
13.6934,94
13.7120,94
13.7305,100
13.7491,84
13.7677,87
13.7863,99
13.8048,94
13.8234,78
13.8420,75
13.8606,100
13.8791,85
13.8977,79
13.9163,92
13.9349,103
13.9534,74
13.9720,86
13.9906,88
14.0092,96
14.0277,76
14.0463,92
14.0649,93
14.0835,102
14.1020,93
14.1206,81
14.1392,76
14.1578,79
14.1763,84
14.1949,98
14.2135,94
14.2321,97
14.2506,86
14.2692,83
14.2878,92
14.3064,96
14.3250,75
14.3435,81
14.3621,87
14.3807,117
14.3993,87
14.4178,89
14.4364,120
14.4550,80
14.4736,92
14.4921,84
14.5107,96
14.5293,80
14.5479,94
14.5664,81
14.5850,87
14.6036,78
14.6222,96
14.6407,105
14.6593,98
14.6779,96
14.6965,108
14.7150,71
14.7336,84
14.7522,82
14.7708,78
14.7893,104
14.8079,80
14.8265,105
14.8451,78
14.8636,83
14.8822,81
14.9008,68
14.9194,86
14.9379,92
14.9565,87
14.9751,92
14.9937,95
15.0122,74
15.0308,77
15.0494,84
15.0680,74
15.0866,75
15.1051,76
15.1237,83
15.1423,89
15.1609,87
15.1794,73
15.1980,97
15.2166,80
15.2352,69
15.2537,79
15.2723,80
15.2909,97
15.3095,76
15.3280,94
15.3466,94
15.3652,95
15.3838,84
15.4023,93
15.4209,78
15.4395,92
15.4581,82
15.4766,74
15.4952,66
15.5138,74
15.5324,92
15.5509,94
15.5695,59
15.5881,70
15.6067,68
15.6252,89
15.6438,88
15.6624,89
15.6810,80
15.6995,105
15.7181,70
15.7367,72
15.7553,64
15.7738,85
15.7924,102
15.8110,79
15.8296,91
15.8482,82
15.8667,80
15.8853,88
15.9039,77
15.9225,81
15.9410,77
15.9596,90
15.9782,79
15.9968,86
16.0153,83
16.0339,82
16.0525,77
16.0711,89
16.0896,75
16.1082,80
16.1268,95
16.1454,73
16.1639,85
16.1825,83
16.2011,83
16.2197,77
16.2382,71
16.2568,77
16.2754,85
16.2940,92
16.3125,82
16.3311,86
16.3497,86
16.3683,77
16.3868,79
16.4054,88
16.4240,86
16.4426,81
16.4611,72
16.4797,72
16.4983,76
16.5169,90
16.5354,105
16.5540,76
16.5726,70
16.5912,83
16.6097,66
16.6283,82
16.6469,81
16.6655,75
16.6841,88
16.7026,96
16.7212,72
16.7398,71
16.7584,97
16.7769,62
16.7955,67
16.8141,68
16.8327,89
16.8512,84
16.8698,75
16.8884,71
16.9070,71
16.9255,87
16.9441,77
16.9627,66
16.9813,73
16.9998,68
17.0184,77
17.0370,90
17.0556,93
17.0741,90
17.0927,89
17.1113,84
17.1299,85
17.1484,71
17.1670,71
17.1856,85
17.2042,79
17.2227,78
17.2413,68
17.2599,86
17.2785,75
17.2970,86
17.3156,71
17.3342,88
17.3528,60
17.3713,78
17.3899,109
17.4085,75
17.4271,88
17.4457,71
17.4642,72
17.4828,90
17.5014,78
17.5200,95
17.5385,75
17.5571,86
17.5757,82
17.5943,96
17.6128,93
17.6314,79
17.6500,76
17.6686,76
17.6871,70
17.7057,74
17.7243,90
17.7429,83
17.7614,80
17.7800,77
17.7986,70
17.8172,71
17.8357,82
17.8543,87
17.8729,74
17.8915,97
17.9100,74
17.9286,70
17.9472,75
17.9658,82
17.9843,67
18.0029,69
18.0215,88
18.0401,79
18.0586,89
18.0772,76
18.0958,87
18.1144,79
18.1329,75
18.1515,86
18.1701,74
18.1887,73
18.2073,90
18.2258,77
18.2444,89
18.2630,82
18.2816,76
18.3001,75
18.3187,94
18.3373,82
18.3559,89
18.3744,76
18.3930,93
18.4116,85
18.4302,83
18.4487,74
18.4673,89
18.4859,66
18.5045,74
18.5230,72
18.5416,76
18.5602,86
18.5788,83
18.5973,81
18.6159,94
18.6345,97
18.6531,92
18.6716,91
18.6902,97
18.7088,84
18.7274,84
18.7459,87
18.7645,93
18.7831,76
18.8017,98
18.8202,94
18.8388,86
18.8574,97
18.8760,80
18.8945,82
18.9131,84
18.9317,85
18.9503,93
18.9689,66
18.9874,84
19.0060,82
19.0246,96
19.0432,94
19.0617,105
19.0803,95
19.0989,93
19.1175,85
19.1360,104
19.1546,89
19.1732,98
19.1918,89
19.2103,86
19.2289,86
19.2475,81
19.2661,86
19.2846,86
19.3032,99
19.3218,74
19.3404,96
19.3589,67
19.3775,80
19.3961,88
19.4147,89
19.4332,94
19.4518,101
19.4704,92
19.4890,89
19.5075,80
19.5261,89
19.5447,96
19.5633,87
19.5818,86
19.6004,81
19.6190,67
19.6376,97
19.6561,82
19.6747,83
19.6933,89
19.7119,102
19.7305,69
19.7490,96
19.7676,99
19.7862,95
19.8048,78
19.8233,82
19.8419,87
19.8605,86
19.8791,90
19.8976,91
19.9162,98
19.9348,88
19.9534,101
19.9719,90
19.9905,83
20.0091,94
20.0277,89
20.0462,98
20.0648,86
20.0834,98
20.1020,95
20.1205,84
20.1391,84
20.1577,88
20.1763,84
20.1948,95
20.2134,94
20.2320,90
20.2506,89
20.2691,92
20.2877,96
20.3063,76
20.3249,92
20.3434,98
20.3620,106
20.3806,70
20.3992,85
20.4177,80
20.4363,82
20.4549,80
20.4735,104
20.4921,91
20.5106,75
20.5292,89
20.5478,87
20.5664,101
20.5849,103
20.6035,80
20.6221,96
20.6407,97
20.6592,97
20.6778,74
20.6964,94
20.7150,94
20.7335,102
20.7521,97
20.7707,94
20.7893,109
20.8078,113
20.8264,91
20.8450,88
20.8636,88
20.8821,83
20.9007,94
20.9193,80
20.9379,99
20.9564,110
20.9750,91
20.9936,96
21.0122,104
21.0307,100
21.0493,102
21.0679,100
21.0865,92
21.1050,121
21.1236,98
21.1422,102
21.1608,116
21.1793,132
21.1979,142
21.2165,167
21.2351,154
21.2537,160
21.2722,157
21.2908,145
21.3094,148
21.3280,184
21.3465,238
21.3651,239
21.3837,217
21.4023,195
21.4208,175
21.4394,136
21.4580,122
21.4766,131
21.4951,96
21.5137,110
21.5323,99
21.5509,106
21.5694,88
21.5880,102
21.6066,82
21.6252,97
21.6437,102
21.6623,82
21.6809,92
21.6995,101
21.7180,91
21.7366,87
21.7552,82
21.7738,82
21.7923,90
21.8109,94
21.8295,119
21.8481,98
21.8666,84
21.8852,111
21.9038,107
21.9224,113
21.9409,97
21.9595,98
21.9781,92
21.9967,110
22.0152,96
22.0338,99
22.0524,97
22.0710,98
22.0896,119
22.1081,82
22.1267,77
22.1453,120
22.1639,92
22.1824,108
22.2010,93
22.2196,82
22.2382,102
22.2567,86
22.2753,107
22.2939,113
22.3125,101
22.3310,97
22.3496,95
22.3682,89
22.3868,90
22.4053,94
22.4239,89
22.4425,103
22.4611,105
22.4796,88
22.4982,107
22.5168,103
22.5354,117
22.5539,91
22.5725,91
22.5911,93
22.6097,82
22.6282,84
22.6468,84
22.6654,104
22.6840,86
22.7025,96
22.7211,116
22.7397,105
22.7583,83
22.7768,95
22.7954,111
22.8140,106
22.8326,106
22.8512,103
22.8697,95
22.8883,113
22.9069,93
22.9255,84
22.9440,90
22.9626,113
22.9812,100
22.9998,100
23.0183,112
23.0369,101
23.0555,109
23.0741,89
23.0926,92
23.1112,87
23.1298,91
23.1484,91
23.1669,111
23.1855,99
23.2041,111
23.2227,100
23.2412,98
23.2598,98
23.2784,98
23.2970,83
23.3155,103
23.3341,98
23.3527,96
23.3713,106
23.3898,93
23.4084,100
23.4270,100
23.4456,103
23.4641,91
23.4827,100
23.5013,108
23.5199,100
23.5384,107
23.5570,91
23.5756,99
23.5942,95
23.6128,125
23.6313,95
23.6499,103
23.6685,95
23.6871,96
23.7056,101
23.7242,111
23.7428,101
23.7614,101
23.7799,91
23.7985,106
23.8171,111
23.8357,93
23.8542,92
23.8728,80
23.8914,100
23.9100,92
23.9285,88
23.9471,96
23.9657,90
23.9843,108
24.0028,94
24.0214,83
24.0400,96
24.0586,104
24.0771,124
24.0957,107
24.1143,94
24.1329,102
24.1514,114
24.1700,118
24.1886,112
24.2072,83
24.2257,101
24.2443,106
24.2629,113
24.2815,109
24.3000,117
24.3186,134
24.3372,103
24.3558,102
24.3744,108
24.3929,94
24.4115,117
24.4301,88
24.4487,97
24.4672,96
24.4858,123
24.5044,114
24.5230,92
24.5415,110
24.5601,93
24.5787,112
24.5973,119
24.6158,103
24.6344,105
24.6530,92
24.6716,96
24.6901,91
24.7087,88
24.7273,99
24.7459,84
24.7644,91
24.7830,106
24.8016,105
24.8202,102
24.8387,92
24.8573,95
24.8759,115
24.8945,78
24.9130,103
24.9316,124
24.9502,104
24.9688,110
24.9873,94
25.0059,85
25.0245,86
25.0431,125
25.0616,103
25.0802,96
25.0988,98
25.1174,98
25.1360,97
25.1545,72
25.1731,107
25.1917,90
25.2103,96
25.2288,105
25.2474,90
25.2660,89
25.2846,96
25.3031,97
25.3217,105
25.3403,108
25.3589,92
25.3774,96
25.3960,93
25.4146,90
25.4332,83
25.4517,107
25.4703,97
25.4889,113
25.5075,99
25.5260,96
25.5446,108
25.5632,74
25.5818,81
25.6003,95
25.6189,93
25.6375,101
25.6561,99
25.6746,83
25.6932,86
25.7118,83
25.7304,87
25.7489,105
25.7675,109
25.7861,99
25.8047,88
25.8232,102
25.8418,88
25.8604,96
25.8790,89
25.8976,103
25.9161,117
25.9347,93
25.9533,91
25.9719,90
25.9904,92
26.0090,86
26.0276,98
26.0462,103
26.0647,102
26.0833,92
26.1019,81
26.1205,82
26.1390,97
26.1576,92
26.1762,80
26.1948,72
26.2133,77
26.2319,101
26.2505,95
26.2691,99
26.2876,99
26.3062,90
26.3248,97
26.3434,108
26.3619,99
26.3805,109
26.3991,104
26.4177,103
26.4362,106
26.4548,105
26.4734,95
26.4920,91
26.5105,89
26.5291,93
26.5477,78
26.5663,87
26.5848,96
26.6034,84
26.6220,94
26.6406,91
26.6591,83
26.6777,92
26.6963,88
26.7149,108
26.7335,78
26.7520,93
26.7706,87
26.7892,91
26.8078,96
26.8263,96
26.8449,83
26.8635,88
26.8821,86
26.9006,87
26.9192,96
26.9378,103
26.9564,88
26.9749,107
26.9935,102
27.0121,100
27.0307,96
27.0492,109
27.0678,91
27.0864,99
27.1050,94
27.1235,91
27.1421,100
27.1607,110
27.1793,95
27.1978,105
27.2164,126
27.2350,116
27.2536,101
27.2721,87
27.2907,93
27.3093,97
27.3279,94
27.3464,97
27.3650,94
27.3836,104
27.4022,104
27.4207,97
27.4393,87
27.4579,93
27.4765,97
27.4951,94
27.5136,104
27.5322,80
27.5508,78
27.5694,92
27.5879,88
27.6065,96
27.6251,79
27.6437,81
27.6622,99
27.6808,102
27.6994,97
27.7180,87
27.7365,88
27.7551,90
27.7737,95
27.7923,81
27.8108,93
27.8294,81
27.8480,99
27.8666,84
27.8851,83
27.9037,83
27.9223,85
27.9409,81
27.9594,104
27.9780,101
27.9966,87
28.0152,91
28.0337,93
28.0523,81
28.0709,83
28.0895,91
28.1080,75
28.1266,77
28.1452,91
28.1638,102
28.1823,68
28.2009,93
28.2195,74
28.2381,81
28.2567,78
28.2752,77
28.2938,84
28.3124,84
28.3310,83
28.3495,85
28.3681,79
28.3867,84
28.4053,78
28.4238,63
28.4424,82
28.4610,85
28.4796,85
28.4981,84
28.5167,82
28.5353,89
28.5539,85
28.5724,80
28.5910,69
28.6096,74
28.6282,65
28.6467,74
28.6653,81
28.6839,90
28.7025,74
28.7210,80
28.7396,84
28.7582,73
28.7768,79
28.7953,62
28.8139,90
28.8325,71
28.8511,84
28.8696,81
28.8882,108
28.9068,83
28.9254,87
28.9439,77
28.9625,88
28.9811,90
28.9997,96
29.0183,75
29.0368,81
29.0554,83
29.0740,86
29.0926,80
29.1111,76
29.1297,77
29.1483,95
29.1669,81
29.1854,67
29.2040,86
29.2226,80
29.2412,90
29.2597,86
29.2783,80
29.2969,75
29.3155,77
29.3340,101
29.3526,79
29.3712,77
29.3898,67
29.4083,89
29.4269,76
29.4455,61
29.4641,83
29.4826,80
29.5012,94
29.5198,87
29.5384,75
29.5569,71
29.5755,77
29.5941,76
29.6127,84
29.6312,87
29.6498,67
29.6684,69
29.6870,67
29.7055,63
29.7241,69
29.7427,79
29.7613,79
29.7799,86
29.7984,70
29.8170,88
29.8356,77
29.8542,93
29.8727,66
29.8913,70
29.9099,82
29.9285,67
29.9470,77
29.9656,80
29.9842,80
30.0028,76
30.0213,85
30.0399,70
30.0585,87
30.0771,78
30.0956,85
30.1142,77
30.1328,83
30.1514,81
30.1699,85
30.1885,80
30.2071,78
30.2257,82
30.2442,79
30.2628,71
30.2814,98
30.3000,88
30.3185,108
30.3371,95
30.3557,146
30.3743,166
30.3928,157
30.4114,150
30.4300,115
30.4486,114
30.4671,135
30.4857,114
30.5043,82
30.5229,64
30.5415,86
30.5600,83
30.5786,74
30.5972,82
30.6158,75
30.6343,52
30.6529,61
30.6715,71
30.6901,68
30.7086,69
30.7272,74
30.7458,78
30.7644,58
30.7829,77
30.8015,72
30.8201,61
30.8387,79
30.8572,77
30.8758,93
30.8944,59
30.9130,65
30.9315,74
30.9501,74
30.9687,87
30.9873,85
31.0058,87
31.0244,65
31.0430,78
31.0616,63
31.0801,56
31.0987,77
31.1173,75
31.1359,69
31.1544,75
31.1730,69
31.1916,78
31.2102,63
31.2287,64
31.2473,71
31.2659,76
31.2845,79
31.3030,69
31.3216,68
31.3402,76
31.3588,72
31.3774,85
31.3959,67
31.4145,62
31.4331,69
31.4517,77
31.4702,80
31.4888,64
31.5074,78
31.5260,64
31.5445,76
31.5631,78
31.5817,58
31.6003,62
31.6188,57
31.6374,67
31.6560,67
31.6746,66
31.6931,72
31.7117,77
31.7303,66
31.7489,68
31.7674,64
31.7860,60
31.8046,57
31.8232,73
31.8417,61
31.8603,49
31.8789,67
31.8975,69
31.9160,65
31.9346,51
31.9532,73
31.9718,77
31.9903,56
32.0089,70
32.0275,66
32.0461,80
32.0646,65
32.0832,76
32.1018,60
32.1204,57
32.1390,64
32.1575,64
32.1761,73
32.1947,57
32.2133,75
32.2318,60
32.2504,63
32.2690,80
32.2876,62
32.3061,81
32.3247,78
32.3433,77
32.3619,58
32.3804,76
32.3990,74
32.4176,71
32.4362,80
32.4547,73
32.4733,83
32.4919,101
32.5105,70
32.5290,66
32.5476,63
32.5662,70
32.5848,61
32.6033,50
32.6219,56
32.6405,57
32.6591,51
32.6776,64
32.6962,71
32.7148,56
32.7334,68
32.7519,55
32.7705,65
32.7891,60
32.8077,63
32.8262,52
32.8448,61
32.8634,71
32.8820,63
32.9006,77
32.9191,62
32.9377,54
32.9563,63
32.9749,53
32.9934,62
33.0120,44
33.0306,63
33.0492,63
33.0677,61
33.0863,85
33.1049,56
33.1235,61
33.1420,67
33.1606,60
33.1792,60
33.1978,62
33.2163,58
33.2349,58
33.2535,57
33.2721,57
33.2906,49
33.3092,50
33.3278,46
33.3464,61
33.3649,55
33.3835,56
33.4021,61
33.4207,70
33.4392,53
33.4578,59
33.4764,55
33.4950,46
33.5135,59
33.5321,54
33.5507,73
33.5693,73
33.5878,54
33.6064,63
33.6250,62
33.6436,60
33.6622,53
33.6807,56
33.6993,53
33.7179,55
33.7365,63
33.7550,62
33.7736,64
33.7922,51
33.8108,63
33.8293,37
33.8479,53
33.8665,53
33.8851,53
33.9036,73
33.9222,54
33.9408,57
33.9594,62
33.9779,65
33.9965,63
34.0151,51
34.0337,57
34.0522,54
34.0708,47
34.0894,64
34.1080,66
34.1265,55
34.1451,59
34.1637,49
34.1823,55
34.2008,55
34.2194,63
34.2380,54
34.2566,63
34.2751,56
34.2937,49
34.3123,62
34.3309,56
34.3494,66
34.3680,54
34.3866,52
34.4052,54
34.4238,54
34.4423,64
34.4609,73
34.4795,50
34.4981,69
34.5166,57
34.5352,64
34.5538,59
34.5724,62
34.5909,49
34.6095,54
34.6281,62
34.6467,56
34.6652,54
34.6838,59
34.7024,63
34.7210,75
34.7395,65
34.7581,72
34.7767,76
34.7953,71
34.8138,81
34.8324,65
34.8510,65
34.8696,75
34.8881,71
34.9067,55
34.9253,72
34.9439,50
34.9624,52
34.9810,64
34.9996,44
35.0182,53
35.0367,53
35.0553,51
35.0739,52
35.0925,49
35.1110,48
35.1296,43
35.1482,57
35.1668,54
35.1854,56
35.2039,48
35.2225,40
35.2411,47
35.2597,46
35.2782,54
35.2968,51
35.3154,57
35.3340,51
35.3525,50
35.3711,48
35.3897,49
35.4083,49
35.4268,57
35.4454,50
35.4640,56
35.4826,38
35.5011,41
35.5197,45
35.5383,48
35.5569,55
35.5754,56
35.5940,42
35.6126,44
35.6312,48
35.6497,46
35.6683,46
35.6869,56
35.7055,52
35.7240,51
35.7426,45
35.7612,46
35.7798,48
35.7983,56
35.8169,44
35.8355,50
35.8541,46
35.8726,45
35.8912,47
35.9098,63
35.9284,42
35.9469,44
35.9655,43
35.9841,35
36.0027,45
36.0213,48
36.0398,41
36.0584,46
36.0770,53
36.0956,50
36.1141,43
36.1327,43
36.1513,60
36.1699,42
36.1884,49
36.2070,55
36.2256,54
36.2442,43
36.2627,48
36.2813,44
36.2999,48
36.3185,45
36.3370,51
36.3556,54
36.3742,44
36.3928,39
36.4113,51
36.4299,60
36.4485,44
36.4671,49
36.4856,50
36.5042,54
36.5228,45
36.5414,38
36.5599,62
36.5785,49
36.5971,44
36.6157,53
36.6342,38
36.6528,48
36.6714,50
36.6900,46
36.7085,42
36.7271,40
36.7457,55
36.7643,45
36.7829,43
36.8014,46
36.8200,48
36.8386,44
36.8572,44
36.8757,41
36.8943,61
36.9129,38
36.9315,42
36.9500,43
36.9686,40
36.9872,41
37.0058,40
37.0243,44
37.0429,40
37.0615,37
37.0801,42
37.0986,44
37.1172,51
37.1358,38
37.1544,47
37.1729,42
37.1915,50
37.2101,45
37.2287,40
37.2472,47
37.2658,48
37.2844,56
37.3030,44
37.3215,43
37.3401,46
37.3587,42
37.3773,53
37.3958,52
37.4144,58
37.4330,74
37.4516,65
37.4701,70
37.4887,50
37.5073,54
37.5259,55
37.5445,65
37.5630,63
37.5816,60
37.6002,48
37.6188,41
37.6373,41
37.6559,49
37.6745,38
37.6931,43
37.7116,48
37.7302,43
37.7488,54
37.7674,41
37.7859,49
37.8045,56
37.8231,45
37.8417,45
37.8602,50
37.8788,38
37.8974,35
37.9160,41
37.9345,41
37.9531,41
37.9717,40
37.9903,48
38.0088,61
38.0274,50
38.0460,42
38.0646,36
38.0831,41
38.1017,38
38.1203,39
38.1389,35
38.1574,46
38.1760,41
38.1946,43
38.2132,38
38.2317,38
38.2503,44
38.2689,45
38.2875,41
38.3061,56
38.3246,51
38.3432,47
38.3618,34
38.3804,46
