; (content of file Y:\Sam\Apurva-07-20-2022\puck2\ML_20220720_20_SJD_0_LaB6-1min.raw)
_FILEVERSION = 3
_SAMPLE = ML_20220720_20_SJD_0_LaB6-1min
_+SAMPLE = 
_SITE = USA
_USER = Administrator
_GONIOMETER_CODE = 20
; Goniometer : D8 theta/2theta, stage : Unknown
_ATTACHMENTS_CODE = 0
_GONIOMETER_RADIUS = 200.5
_FIXED_DIVSLIT = 0.6
_FIXED_SAMPLESLIT = 0
_SOLLER_SLITS = 2
_FIXED_DETSLIT = 9.55
_MONOCHROMATOR = 0
; Incident beam monochromator : None
_SOLLER_SLITS_2 = N
_THIN_FILM = N
_BETA_FILTER = Y
_FIXED_ANTISLIT = 5.89
_ANALYZER_CODE = 0
; Received beam analyzer : None
_DATEMEASURED = "25-Jul-2022 18:23:39"
_WL_UNIT = A
_WL1 = 1.5406
_WL2 = 1.54439
_WL3 = 1.39222
_WLRATIO = 0.5
_ANODE = Cu
_V4_INF_CREATOR = XRDWizard
_V4_INF_CREATOR_VERSION = V2.9.0.22
_V4_INF_WIZARD_VERSION = V2.9.0.22
_V4_INF_WIZARD_ADDINS = V2.9.0.22
_V4_INF_WIZARD_DOCTYPE = XRD
_V4_INF_OSUSER = McQueenLab
_V4_INF_USER = Administrator
_V4_INF_SITE = USA
_V4_INF_SAMPLEID = ML_20220720_20_SJD_0_LaB6-1min

; Data for range 1
_DRIVE = COUPLED
_STEPTIME = 4.23
_STEPSIZE = 0.0185756
_STEPMODE = C
_START = 5
_THETA = 2.5
_2THETA = 5
_KHI = 0
_PHI = 0
_X = 0
_Y = 0
_Z = 0
_DETECTOR = 5
; Detector type : Unknown
_DETECTORSLIT = unkn
_AUX1 = 0
_AUX2 = 0
_AUX3 = 0
_TIMESTARTED = 14
_TEMP_RATE = -1
_TEMP_DELAY = -1
_KV = 40
_MA = 40
_RANGE_WL = 1.5406
_3DPLANE = 0
_V4_ADDITIONALDETECTOR = 257
_V4_PSD2THETA = 3.3766
_V4_PSDCHANNEL1 = 0
_V4_PSDAPERTURE = 12.68
_V4_PSDTYPE = 5
_V4_PSDFIXED = 0
_V4_COUNTERS_MASK = 4096
_V4_DRIVES_MASK = 0
_V4_ENCODERS_MASK = 0
_2THETACOUNTS = 1
; 2THETA  PSD
   5.0000        102
   5.0186         92
   5.0372         96
   5.0557        103
   5.0743        101
   5.0929         96
   5.1115         83
   5.1300        110
   5.1486        105
   5.1672         90
   5.1858        100
   5.2043         98
   5.2229         98
   5.2415         88
   5.2601        107
   5.2786         99
   5.2972         90
   5.3158        113
   5.3344         90
   5.3529         81
   5.3715         87
   5.3901         92
   5.4087         86
   5.4272         93
   5.4458         88
   5.4644         84
   5.4830         77
   5.5015         94
   5.5201         94
   5.5387         81
   5.5573         78
   5.5758         82
   5.5944         70
   5.6130         83
   5.6316         79
   5.6501         75
   5.6687         68
   5.6873         85
   5.7059         73
   5.7244         87
   5.7430         69
   5.7616         78
   5.7802         75
   5.7988         85
   5.8173         79
   5.8359         68
   5.8545         52
   5.8731         72
   5.8916         91
   5.9102         69
   5.9288         81
   5.9474         82
   5.9659         64
   5.9845         73
   6.0031         68
   6.0217         81
   6.0402         80
   6.0588         71
   6.0774         66
   6.0960         63
   6.1145         69
   6.1331         67
   6.1517         77
   6.1703         80
   6.1888         79
   6.2074         67
   6.2260         61
   6.2446         48
   6.2631         60
   6.2817         77
   6.3003         50
   6.3189         74
   6.3374         56
   6.3560         73
   6.3746         67
   6.3932         78
   6.4117         50
   6.4303         65
   6.4489         66
   6.4675         65
   6.4860         58
   6.5046         65
   6.5232         69
   6.5418         68
   6.5604         59
   6.5789         61
   6.5975         66
   6.6161         70
   6.6347         74
   6.6532         60
   6.6718         71
   6.6904         68
   6.7090         63
   6.7275         56
   6.7461         69
   6.7647         60
   6.7833         81
   6.8018         64
   6.8204         52
   6.8390         62
   6.8576         58
   6.8761         63
   6.8947         57
   6.9133         53
   6.9319         49
   6.9504         48
   6.9690         69
   6.9876         66
   7.0062         67
   7.0247         72
   7.0433         49
   7.0619         65
   7.0805         56
   7.0990         54
   7.1176         56
   7.1362         70
   7.1548         53
   7.1733         56
   7.1919         63
   7.2105         59
   7.2291         71
   7.2476         63
   7.2662         59
   7.2848         55
   7.3034         60
   7.3220         60
   7.3405         53
   7.3591         52
   7.3777         49
   7.3963         56
   7.4148         63
   7.4334         57
   7.4520         52
   7.4706         60
   7.4891         67
   7.5077         56
   7.5263         56
   7.5449         69
   7.5634         55
   7.5820         55
   7.6006         62
   7.6192         80
   7.6377         53
   7.6563         53
   7.6749         59
   7.6935         61
   7.7120         61
   7.7306         66
   7.7492         73
   7.7678         64
   7.7863         68
   7.8049         65
   7.8235         69
   7.8421         71
   7.8606         56
   7.8792         64
   7.8978         61
   7.9164         71
   7.9349         67
   7.9535         52
   7.9721         81
   7.9907         57
   8.0092         68
   8.0278         69
   8.0464         66
   8.0650         60
   8.0835         78
   8.1021         74
   8.1207         75
   8.1393         59
   8.1579         91
   8.1764         67
   8.1950         71
   8.2136         73
   8.2322         75
   8.2507         63
   8.2693         81
   8.2879         69
   8.3065         62
   8.3250         74
   8.3436         71
   8.3622         63
   8.3808         75
   8.3993         74
   8.4179         63
   8.4365         76
   8.4551         55
   8.4736         78
   8.4922         60
   8.5108         69
   8.5294         81
   8.5479         78
   8.5665         71
   8.5851         78
   8.6037         78
   8.6222         72
   8.6408         84
   8.6594         77
   8.6780         66
   8.6965         89
   8.7151         77
   8.7337         86
   8.7523         80
   8.7708         69
   8.7894         62
   8.8080         53
   8.8266         71
   8.8451         79
   8.8637         61
   8.8823         79
   8.9009         68
   8.9195         66
   8.9380         64
   8.9566         83
   8.9752         82
   8.9938         67
   9.0123         67
   9.0309         80
   9.0495         81
   9.0681         63
   9.0866         88
   9.1052         76
   9.1238         81
   9.1424         78
   9.1609         91
   9.1795         71
   9.1981         83
   9.2167         77
   9.2352         69
   9.2538         73
   9.2724         74
   9.2910         82
   9.3095         79
   9.3281         74
   9.3467         97
   9.3653         81
   9.3838         90
   9.4024         73
   9.4210         88
   9.4396         88
   9.4581         73
   9.4767         82
   9.4953         89
   9.5139        104
   9.5324         79
   9.5510         67
   9.5696         78
   9.5882         87
   9.6067         81
   9.6253         84
   9.6439         55
   9.6625         73
   9.6811         90
   9.6996         78
   9.7182         96
   9.7368         77
   9.7554         87
   9.7739         98
   9.7925         66
   9.8111         89
   9.8297         71
   9.8482         88
   9.8668         86
   9.8854         95
   9.9040         89
   9.9225        102
   9.9411         94
   9.9597         83
   9.9783         90
   9.9968         99
  10.0154        100
  10.0340         85
  10.0526         81
  10.0711         94
  10.0897         97
  10.1083        103
  10.1269         90
  10.1454         78
  10.1640         73
  10.1826         86
  10.2012         86
  10.2197         82
  10.2383        103
  10.2569         94
  10.2755         84
  10.2940         84
  10.3126         74
  10.3312         81
  10.3498         79
  10.3683         89
  10.3869         88
  10.4055        107
  10.4241         91
  10.4427         86
  10.4612         76
  10.4798         94
  10.4984         87
  10.5170         89
  10.5355        101
  10.5541         87
  10.5727         77
  10.5913         97
  10.6098         76
  10.6284         97
  10.6470         90
  10.6656         80
  10.6841         65
  10.7027         88
  10.7213         83
  10.7399         92
  10.7584         83
  10.7770         88
  10.7956        105
  10.8142         94
  10.8327         67
  10.8513         69
  10.8699         79
  10.8885         94
  10.9070         80
  10.9256        104
  10.9442         93
  10.9628         91
  10.9813         82
  10.9999         98
  11.0185         97
  11.0371         90
  11.0556         90
  11.0742         79
  11.0928         88
  11.1114         87
  11.1299        112
  11.1485         76
  11.1671         81
  11.1857         95
  11.2043         88
  11.2228         73
  11.2414         89
  11.2600         72
  11.2786         63
  11.2971         83
  11.3157        105
  11.3343        101
  11.3529         97
  11.3714         88
  11.3900         84
  11.4086        103
  11.4272         91
  11.4457        104
  11.4643         89
  11.4829         83
  11.5015         90
  11.5200         90
  11.5386         83
  11.5572         90
  11.5758         95
  11.5943         99
  11.6129         91
  11.6315         72
  11.6501         93
  11.6686        102
  11.6872         90
  11.7058         87
  11.7244         85
  11.7429         91
  11.7615         91
  11.7801         81
  11.7987         99
  11.8172         93
  11.8358        102
  11.8544         88
  11.8730         70
  11.8915         78
  11.9101         72
  11.9287         80
  11.9473         79
  11.9659         69
  11.9844         73
  12.0030         89
  12.0216         80
  12.0402         81
  12.0587         89
  12.0773         71
  12.0959         66
  12.1145         89
  12.1330         75
  12.1516         95
  12.1702         72
  12.1888         91
  12.2073         83
  12.2259         86
  12.2445         77
  12.2631         90
  12.2816         83
  12.3002         81
  12.3188         89
  12.3374         88
  12.3559         64
  12.3745         92
  12.3931         83
  12.4117         82
  12.4302         92
  12.4488         75
  12.4674         60
  12.4860         68
  12.5045         86
  12.5231         80
  12.5417         65
  12.5603         80
  12.5788         85
  12.5974         85
  12.6160         91
  12.6346         85
  12.6531         81
  12.6717         73
  12.6903         60
  12.7089         89
  12.7274         74
  12.7460         68
  12.7646         61
  12.7832         73
  12.8018         72
  12.8203         80
  12.8389         82
  12.8575         69
  12.8761         76
  12.8946         85
  12.9132         71
  12.9318         69
  12.9504         79
  12.9689         84
  12.9875         76
  13.0061         80
  13.0247         57
  13.0432         97
  13.0618         83
  13.0804         75
  13.0990         68
  13.1175         65
  13.1361         57
  13.1547         68
  13.1733         51
  13.1918         70
  13.2104         67
  13.2290         78
  13.2476         76
  13.2661         83
  13.2847         63
  13.3033         61
  13.3219         81
  13.3404         79
  13.3590         83
  13.3776         79
  13.3962         71
  13.4147         61
  13.4333         63
  13.4519         70
  13.4705         68
  13.4890         66
  13.5076         63
  13.5262         64
  13.5448         94
  13.5634         65
  13.5819         79
  13.6005         62
  13.6191         67
  13.6377         53
  13.6562         67
  13.6748         77
  13.6934         68
  13.7120         72
  13.7305         61
  13.7491         75
  13.7677         61
  13.7863         50
  13.8048         71
  13.8234         82
  13.8420         88
  13.8606         58
  13.8791         65
  13.8977         58
  13.9163         79
  13.9349         74
  13.9534         68
  13.9720         62
  13.9906         71
  14.0092         58
  14.0277         93
  14.0463         64
  14.0649         61
  14.0835         72
  14.1020         84
  14.1206         75
  14.1392         70
  14.1578         57
  14.1763         85
  14.1949         63
  14.2135         70
  14.2321         84
  14.2506         46
  14.2692         59
  14.2878         64
  14.3064         70
  14.3250         63
  14.3435         71
  14.3621         63
  14.3807         65
  14.3993         70
  14.4178         78
  14.4364         71
  14.4550         84
  14.4736         70
  14.4921         71
  14.5107         57
  14.5293         67
  14.5479         72
  14.5664         59
  14.5850         55
  14.6036         49
  14.6222         52
  14.6407         63
  14.6593         63
  14.6779         68
  14.6965         66
  14.7150         43
  14.7336         72
  14.7522         62
  14.7708         62
  14.7893         61
  14.8079         77
  14.8265         59
  14.8451         52
  14.8636         72
  14.8822         46
  14.9008         68
  14.9194         58
  14.9379         48
  14.9565         56
  14.9751         64
  14.9937         53
  15.0122         70
  15.0308         68
  15.0494         67
  15.0680         51
  15.0866         53
  15.1051         64
  15.1237         65
  15.1423         77
  15.1609         67
  15.1794         49
  15.1980         60
  15.2166         57
  15.2352         62
  15.2537         75
  15.2723         72
  15.2909         52
  15.3095         53
  15.3280         61
  15.3466         47
  15.3652         59
  15.3838         52
  15.4023         66
  15.4209         56
  15.4395         61
  15.4581         63
  15.4766         51
  15.4952         66
  15.5138         59
  15.5324         64
  15.5509         52
  15.5695         51
  15.5881         68
  15.6067         68
  15.6252         58
  15.6438         68
  15.6624         63
  15.6810         74
  15.6995         45
  15.7181         58
  15.7367         50
  15.7553         49
  15.7738         70
  15.7924         57
  15.8110         75
  15.8296         56
  15.8482         64
  15.8667         56
  15.8853         52
  15.9039         63
  15.9225         67
  15.9410         53
  15.9596         57
  15.9782         68
  15.9968         67
  16.0153         57
  16.0339         53
  16.0525         60
  16.0711         46
  16.0896         55
  16.1082         54
  16.1268         64
  16.1454         56
  16.1639         55
  16.1825         72
  16.2011         52
  16.2197         53
  16.2382         48
  16.2568         59
  16.2754         55
  16.2940         61
  16.3125         52
  16.3311         52
  16.3497         61
  16.3683         59
  16.3868         44
  16.4054         60
  16.4240         56
  16.4426         61
  16.4611         70
  16.4797         57
  16.4983         53
  16.5169         53
  16.5354         57
  16.5540         58
  16.5726         52
  16.5912         64
  16.6097         70
  16.6283         62
  16.6469         74
  16.6655         55
  16.6841         58
  16.7026         53
  16.7212         68
  16.7398         51
  16.7584         50
  16.7769         65
  16.7955         54
  16.8141         59
  16.8327         68
  16.8512         74
  16.8698         59
  16.8884         66
  16.9070         68
  16.9255         55
  16.9441         65
  16.9627         50
  16.9813         57
  16.9998         52
  17.0184         45
  17.0370         60
  17.0556         56
  17.0741         63
  17.0927         64
  17.1113         58
  17.1299         70
  17.1484         55
  17.1670         53
  17.1856         72
  17.2042         63
  17.2227         56
  17.2413         62
  17.2599         63
  17.2785         51
  17.2970         56
  17.3156         57
  17.3342         66
  17.3528         56
  17.3713         69
  17.3899         56
  17.4085         77
  17.4271         76
  17.4457         69
  17.4642         72
  17.4828         47
  17.5014         62
  17.5200         54
  17.5385         47
  17.5571         59
  17.5757         59
  17.5943         48
  17.6128         61
  17.6314         64
  17.6500         54
  17.6686         68
  17.6871         59
  17.7057         64
  17.7243         56
  17.7429         59
  17.7614         53
  17.7800         75
  17.7986         53
  17.8172         66
  17.8357         56
  17.8543         51
  17.8729         66
  17.8915         70
  17.9100         66
  17.9286         64
  17.9472         50
  17.9658         65
  17.9843         52
  18.0029         61
  18.0215         54
  18.0401         61
  18.0586         51
  18.0772         61
  18.0958         55
  18.1144         52
  18.1329         78
  18.1515         60
  18.1701         51
  18.1887         50
  18.2073         55
  18.2258         63
  18.2444         52
  18.2630         62
  18.2816         76
  18.3001         61
  18.3187         72
  18.3373         69
  18.3559         63
  18.3744         64
  18.3930         53
  18.4116         55
  18.4302         60
  18.4487         61
  18.4673         64
  18.4859         51
  18.5045         60
  18.5230         63
  18.5416         73
  18.5602         67
  18.5788         73
  18.5973         47
  18.6159         41
  18.6345         54
  18.6531         57
  18.6716         55
  18.6902         55
  18.7088         53
  18.7274         67
  18.7459         81
  18.7645         63
  18.7831         66
  18.8017         58
  18.8202         62
  18.8388         68
  18.8574         51
  18.8760         59
  18.8945         65
  18.9131         71
  18.9317         60
  18.9503         72
  18.9689         74
  18.9874         57
  19.0060         62
  19.0246         62
  19.0432         68
  19.0617         67
  19.0803         72
  19.0989         65
  19.1175         53
  19.1360         70
  19.1546         67
  19.1732         53
  19.1918         62
  19.2103         67
  19.2289         52
  19.2475         52
  19.2661         70
  19.2846         70
  19.3032         79
  19.3218         61
  19.3404         59
  19.3589         53
  19.3775         55
  19.3961         68
  19.4147         61
  19.4332         56
  19.4518         60
  19.4704         59
  19.4890         66
  19.5075         61
  19.5261         61
  19.5447         60
  19.5633         66
  19.5818         54
  19.6004         64
  19.6190         49
  19.6376         73
  19.6561         61
  19.6747         62
  19.6933         64
  19.7119         63
  19.7305         73
  19.7490         62
  19.7676         66
  19.7862         90
  19.8048         49
  19.8233         61
  19.8419         81
  19.8605         60
  19.8791         70
  19.8976         70
  19.9162         86
  19.9348         80
  19.9534         58
  19.9719         79
  19.9905         64
  20.0091         57
  20.0277         69
  20.0462         56
  20.0648         61
  20.0834         66
  20.1020         70
  20.1205         60
  20.1391         58
  20.1577         74
  20.1763         74
  20.1948         74
  20.2134         70
  20.2320         82
  20.2506         59
  20.2691         66
  20.2877         69
  20.3063         64
  20.3249         79
  20.3434         75
  20.3620         78
  20.3806         64
  20.3992         58
  20.4177         63
  20.4363         63
  20.4549         73
  20.4735         55
