; (content of file Y:\Sam\Apurva-07-20-2022\puck4\ML_20220718_54_SJD_4_LaB6-4min.raw)
_FILEVERSION = 3
_SAMPLE = ML_20220718_54_SJD_4_LaB6-4min
_+SAMPLE = 
_SITE = USA
_USER = Administrator
_GONIOMETER_CODE = 20
; Goniometer : D8 theta/2theta, stage : Unknown
_ATTACHMENTS_CODE = 0
_GONIOMETER_RADIUS = 200.5
_FIXED_DIVSLIT = 0.6
_FIXED_SAMPLESLIT = 0
_SOLLER_SLITS = 2
_FIXED_DETSLIT = 9.55
_MONOCHROMATOR = 0
; Incident beam monochromator : None
_SOLLER_SLITS_2 = N
_THIN_FILM = N
_BETA_FILTER = Y
_FIXED_ANTISLIT = 5.89
_ANALYZER_CODE = 0
; Received beam analyzer : None
_DATEMEASURED = "26-Jul-2022 14:18:41"
_WL_UNIT = A
_WL1 = 1.5406
_WL2 = 1.54439
_WL3 = 1.39222
_WLRATIO = 0.5
_ANODE = Cu
_V4_INF_CREATOR = XRDWizard
_V4_INF_CREATOR_VERSION = V2.9.0.22
_V4_INF_WIZARD_VERSION = V2.9.0.22
_V4_INF_WIZARD_ADDINS = V2.9.0.22
_V4_INF_WIZARD_DOCTYPE = XRD
_V4_INF_OSUSER = McQueenLab
_V4_INF_USER = Administrator
_V4_INF_SITE = USA
_V4_INF_SAMPLEID = ML_20220718_54_SJD_4_LaB6-4min

; Data for range 1
_DRIVE = COUPLED
_STEPTIME = 11.28
_STEPSIZE = 0.0185756
_STEPMODE = C
_START = 5
_THETA = 2.5
_2THETA = 5
_KHI = 0
_PHI = 0
_X = 0
_Y = 0
_Z = 0
_DETECTOR = 5
; Detector type : Unknown
_DETECTORSLIT = unkn
_AUX1 = 0
_AUX2 = 0
_AUX3 = 0
_TIMESTARTED = 14
_TEMP_RATE = -1
_TEMP_DELAY = -1
_KV = 40
_MA = 40
_RANGE_WL = 1.5406
_3DPLANE = 0
_V4_ADDITIONALDETECTOR = 257
_V4_PSD2THETA = 3.3878
_V4_PSDCHANNEL1 = 0
_V4_PSDAPERTURE = 12.68
_V4_PSDTYPE = 5
_V4_PSDFIXED = 0
_V4_COUNTERS_MASK = 4096
_V4_DRIVES_MASK = 0
_V4_ENCODERS_MASK = 0
_2THETACOUNTS = 1
; 2THETA  PSD
   5.0000        292
   5.0186        285
   5.0372        271
   5.0557        255
   5.0743        255
   5.0929        280
   5.1115        272
   5.1300        250
   5.1486        258
   5.1672        264
   5.1858        247
   5.2043        245
   5.2229        231
   5.2415        239
   5.2601        224
   5.2786        248
   5.2972        238
   5.3158        245
   5.3344        227
   5.3529        246
   5.3715        239
   5.3901        249
   5.4087        228
   5.4272        224
   5.4458        210
   5.4644        229
   5.4830        225
   5.5015        256
   5.5201        230
   5.5387        216
   5.5573        218
   5.5758        205
   5.5944        192
   5.6130        208
   5.6316        224
   5.6501        220
   5.6687        206
   5.6873        217
   5.7059        229
   5.7244        218
   5.7430        218
   5.7616        195
   5.7802        219
   5.7988        217
   5.8173        216
   5.8359        203
   5.8545        200
   5.8731        214
   5.8916        194
   5.9102        188
   5.9288        219
   5.9474        220
   5.9659        213
   5.9845        177
   6.0031        214
   6.0217        202
   6.0402        211
   6.0588        199
   6.0774        198
   6.0960        198
   6.1145        204
   6.1331        200
   6.1517        188
   6.1703        197
   6.1888        209
   6.2074        211
   6.2260        194
   6.2446        173
   6.2631        173
   6.2817        178
   6.3003        199
   6.3189        201
   6.3374        187
   6.3560        174
   6.3746        182
   6.3932        173
   6.4117        199
   6.4303        185
   6.4489        184
   6.4675        187
   6.4860        156
   6.5046        186
   6.5232        181
   6.5418        175
   6.5604        187
   6.5789        153
   6.5975        151
   6.6161        183
   6.6347        177
   6.6532        160
   6.6718        151
   6.6904        164
   6.7090        162
   6.7275        181
   6.7461        183
   6.7647        177
   6.7833        189
   6.8018        170
   6.8204        172
   6.8390        187
   6.8576        172
   6.8761        173
   6.8947        169
   6.9133        156
   6.9319        178
   6.9504        146
   6.9690        135
   6.9876        159
   7.0062        173
   7.0247        162
   7.0433        159
   7.0619        170
   7.0805        147
   7.0990        162
   7.1176        152
   7.1362        166
   7.1548        157
   7.1733        156
   7.1919        161
   7.2105        141
   7.2291        170
   7.2476        157
   7.2662        168
   7.2848        144
   7.3034        170
   7.3220        171
   7.3405        154
   7.3591        147
   7.3777        172
   7.3963        173
   7.4148        146
   7.4334        137
   7.4520        152
   7.4706        168
   7.4891        161
   7.5077        157
   7.5263        184
   7.5449        154
   7.5634        152
   7.5820        140
   7.6006        190
   7.6192        187
   7.6377        160
   7.6563        174
   7.6749        175
   7.6935        158
   7.7120        162
   7.7306        170
   7.7492        182
   7.7678        155
   7.7863        182
   7.8049        172
   7.8235        161
   7.8421        174
   7.8606        188
   7.8792        165
   7.8978        194
   7.9164        191
   7.9349        203
   7.9535        174
   7.9721        176
   7.9907        155
   8.0092        185
   8.0278        181
   8.0464        196
   8.0650        199
   8.0835        214
   8.1021        195
   8.1207        192
   8.1393        219
   8.1579        205
   8.1764        189
   8.1950        194
   8.2136        178
   8.2322        184
   8.2507        216
   8.2693        213
   8.2879        183
   8.3065        193
   8.3250        173
   8.3436        201
   8.3622        191
   8.3808        178
   8.3993        181
   8.4179        187
   8.4365        205
   8.4551        216
   8.4736        207
   8.4922        184
   8.5108        196
   8.5294        199
   8.5479        191
   8.5665        198
   8.5851        224
   8.6037        182
   8.6222        194
   8.6408        195
   8.6594        216
   8.6780        179
   8.6965        207
   8.7151        212
   8.7337        201
   8.7523        186
   8.7708        216
   8.7894        193
   8.8080        213
   8.8266        196
   8.8451        213
   8.8637        194
   8.8823        218
   8.9009        216
   8.9195        224
   8.9380        182
   8.9566        242
   8.9752        237
   8.9938        209
   9.0123        221
   9.0309        199
   9.0495        204
   9.0681        187
   9.0866        207
   9.1052        207
   9.1238        198
   9.1424        208
   9.1609        208
   9.1795        189
   9.1981        225
   9.2167        222
   9.2352        215
   9.2538        210
   9.2724        218
   9.2910        201
   9.3095        218
   9.3281        216
   9.3467        233
   9.3653        236
   9.3838        187
   9.4024        236
   9.4210        243
   9.4396        223
   9.4581        219
   9.4767        213
   9.4953        227
   9.5139        198
   9.5324        228
   9.5510        214
   9.5696        214
   9.5882        240
   9.6067        198
   9.6253        225
   9.6439        224
   9.6625        193
   9.6811        221
   9.6996        217
   9.7182        232
   9.7368        205
   9.7554        253
   9.7739        239
   9.7925        205
   9.8111        262
   9.8297        214
   9.8482        244
   9.8668        215
   9.8854        246
   9.9040        239
   9.9225        279
   9.9411        242
   9.9597        260
   9.9783        216
   9.9968        230
  10.0154        258
  10.0340        234
  10.0526        235
  10.0711        227
  10.0897        250
  10.1083        227
  10.1269        242
  10.1454        234
  10.1640        250
  10.1826        249
  10.2012        252
  10.2197        237
  10.2383        263
  10.2569        242
  10.2755        274
  10.2940        265
  10.3126        220
  10.3312        255
  10.3498        264
  10.3683        268
  10.3869        234
  10.4055        220
  10.4241        241
  10.4427        250
  10.4612        235
  10.4798        229
  10.4984        228
  10.5170        233
  10.5355        239
  10.5541        268
  10.5727        241
  10.5913        272
  10.6098        239
  10.6284        241
  10.6470        257
  10.6656        240
  10.6841        231
  10.7027        243
  10.7213        222
  10.7399        238
  10.7584        248
  10.7770        269
  10.7956        247
  10.8142        234
  10.8327        247
  10.8513        230
  10.8699        236
  10.8885        214
  10.9070        224
  10.9256        231
  10.9442        229
  10.9628        229
  10.9813        245
  10.9999        240
  11.0185        278
  11.0371        259
  11.0556        234
  11.0742        238
  11.0928        242
  11.1114        252
  11.1299        237
  11.1485        238
  11.1671        224
  11.1857        229
  11.2043        262
  11.2228        242
  11.2414        239
  11.2600        235
  11.2786        233
  11.2971        248
  11.3157        225
  11.3343        239
  11.3529        273
  11.3714        237
  11.3900        244
  11.4086        250
  11.4272        212
  11.4457        231
  11.4643        263
  11.4829        243
  11.5015        247
  11.5200        243
  11.5386        212
  11.5572        230
  11.5758        242
  11.5943        206
  11.6129        243
  11.6315        227
  11.6501        252
  11.6686        238
  11.6872        235
  11.7058        208
  11.7244        218
  11.7429        238
  11.7615        232
  11.7801        225
  11.7987        224
  11.8172        244
  11.8358        242
  11.8544        249
  11.8730        196
  11.8915        244
  11.9101        222
  11.9287        204
  11.9473        223
  11.9659        211
  11.9844        233
  12.0030        222
  12.0216        228
  12.0402        203
  12.0587        210
  12.0773        228
  12.0959        206
  12.1145        228
  12.1330        216
  12.1516        232
  12.1702        242
  12.1888        212
  12.2073        229
  12.2259        219
  12.2445        206
  12.2631        250
  12.2816        209
  12.3002        193
  12.3188        223
  12.3374        240
  12.3559        200
  12.3745        210
  12.3931        240
  12.4117        214
  12.4302        219
  12.4488        227
  12.4674        196
  12.4860        224
  12.5045        234
  12.5231        198
  12.5417        234
  12.5603        205
  12.5788        217
  12.5974        194
  12.6160        203
  12.6346        203
  12.6531        213
  12.6717        218
  12.6903        193
  12.7089        213
  12.7274        240
  12.7460        224
  12.7646        209
  12.7832        197
  12.8018        220
  12.8203        201
  12.8389        204
  12.8575        227
  12.8761        220
  12.8946        209
  12.9132        223
  12.9318        183
  12.9504        185
  12.9689        202
  12.9875        198
  13.0061        199
  13.0247        200
  13.0432        191
  13.0618        212
  13.0804        199
  13.0990        214
  13.1175        209
  13.1361        214
  13.1547        215
  13.1733        188
  13.1918        214
  13.2104        175
  13.2290        190
  13.2476        215
  13.2661        217
  13.2847        192
  13.3033        214
  13.3219        185
  13.3404        207
  13.3590        178
  13.3776        191
  13.3962        178
  13.4147        216
  13.4333        211
  13.4519        199
  13.4705        183
  13.4890        185
  13.5076        185
  13.5262        219
  13.5448        214
  13.5634        180
  13.5819        214
  13.6005        201
  13.6191        215
  13.6377        191
  13.6562        193
  13.6748        191
  13.6934        204
  13.7120        175
  13.7305        194
  13.7491        175
  13.7677        196
  13.7863        182
  13.8048        153
  13.8234        178
  13.8420        162
  13.8606        165
  13.8791        199
  13.8977        184
  13.9163        184
  13.9349        183
  13.9534        179
  13.9720        191
  13.9906        172
  14.0092        183
  14.0277        159
  14.0463        185
  14.0649        217
  14.0835        190
  14.1020        181
  14.1206        175
  14.1392        181
  14.1578        174
  14.1763        201
  14.1949        180
  14.2135        156
  14.2321        158
  14.2506        178
  14.2692        190
  14.2878        191
  14.3064        168
  14.3250        198
  14.3435        196
  14.3621        159
  14.3807        185
  14.3993        191
  14.4178        199
  14.4364        162
  14.4550        182
  14.4736        168
  14.4921        187
  14.5107        162
  14.5293        181
  14.5479        180
  14.5664        173
  14.5850        184
  14.6036        156
  14.6222        208
  14.6407        183
  14.6593        160
  14.6779        152
  14.6965        163
  14.7150        171
  14.7336        178
  14.7522        180
  14.7708        151
  14.7893        155
  14.8079        161
  14.8265        181
  14.8451        176
  14.8636        175
  14.8822        176
  14.9008        177
  14.9194        163
  14.9379        168
  14.9565        198
  14.9751        180
  14.9937        181
  15.0122        165
  15.0308        143
  15.0494        157
  15.0680        152
  15.0866        176
  15.1051        187
  15.1237        166
  15.1423        202
  15.1609        168
  15.1794        160
  15.1980        162
  15.2166        181
  15.2352        171
  15.2537        169
  15.2723        142
  15.2909        159
  15.3095        133
  15.3280        152
  15.3466        160
  15.3652        157
  15.3838        178
  15.4023        169
  15.4209        164
  15.4395        181
  15.4581        175
  15.4766        180
  15.4952        146
  15.5138        181
  15.5324        153
  15.5509        166
  15.5695        165
  15.5881        141
  15.6067        182
  15.6252        177
  15.6438        171
  15.6624        157
  15.6810        141
  15.6995        156
  15.7181        190
  15.7367        191
  15.7553        166
  15.7738        148
  15.7924        169
  15.8110        163
  15.8296        141
  15.8482        167
  15.8667        141
  15.8853        182
  15.9039        164
  15.9225        174
  15.9410        169
  15.9596        175
  15.9782        147
  15.9968        133
  16.0153        138
  16.0339        194
  16.0525        146
  16.0711        175
  16.0896        146
  16.1082        149
  16.1268        159
  16.1454        147
  16.1639        167
  16.1825        156
  16.2011        156
  16.2197        154
  16.2382        146
  16.2568        177
  16.2754        168
  16.2940        184
  16.3125        162
  16.3311        165
  16.3497        156
  16.3683        151
  16.3868        174
  16.4054        157
  16.4240        167
  16.4426        155
  16.4611        160
  16.4797        161
  16.4983        175
  16.5169        158
  16.5354        158
  16.5540        187
  16.5726        159
  16.5912        150
  16.6097        155
  16.6283        152
  16.6469        184
  16.6655        172
  16.6841        148
  16.7026        163
  16.7212        161
  16.7398        163
  16.7584        155
  16.7769        153
  16.7955        149
  16.8141        176
  16.8327        159
  16.8512        151
  16.8698        143
  16.8884        163
  16.9070        171
  16.9255        182
  16.9441        159
  16.9627        153
  16.9813        158
  16.9998        180
  17.0184        144
  17.0370        162
  17.0556        173
  17.0741        151
  17.0927        177
  17.1113        161
  17.1299        171
  17.1484        145
  17.1670        160
  17.1856        162
  17.2042        183
  17.2227        166
  17.2413        181
  17.2599        153
  17.2785        189
  17.2970        144
  17.3156        157
  17.3342        175
  17.3528        159
  17.3713        162
  17.3899        171
  17.4085        154
  17.4271        174
  17.4457        170
  17.4642        164
  17.4828        164
  17.5014        161
  17.5200        167
  17.5385        152
  17.5571        155
  17.5757        165
  17.5943        178
  17.6128        139
  17.6314        165
  17.6500        167
  17.6686        165
  17.6871        168
  17.7057        161
  17.7243        166
  17.7429        138
  17.7614        180
  17.7800        153
  17.7986        189
  17.8172        160
  17.8357        163
  17.8543        166
  17.8729        182
  17.8915        167
  17.9100        162
  17.9286        183
  17.9472        148
  17.9658        188
  17.9843        162
  18.0029        169
  18.0215        187
  18.0401        162
  18.0586        146
  18.0772        161
  18.0958        180
  18.1144        164
  18.1329        163
  18.1515        174
  18.1701        157
  18.1887        177
  18.2073        171
  18.2258        175
  18.2444        128
  18.2630        147
  18.2816        155
  18.3001        134
  18.3187        134
  18.3373        143
  18.3559        179
  18.3744        181
  18.3930        165
  18.4116        169
  18.4302        165
  18.4487        137
  18.4673        160
  18.4859        160
  18.5045        152
  18.5230        182
  18.5416        177
  18.5602        137
  18.5788        161
  18.5973        172
  18.6159        170
  18.6345        154
  18.6531        163
  18.6716        170
  18.6902        185
  18.7088        167
  18.7274        185
  18.7459        181
  18.7645        164
  18.7831        163
  18.8017        157
  18.8202        182
  18.8388        164
  18.8574        163
  18.8760        163
  18.8945        187
  18.9131        176
  18.9317        153
  18.9503        167
  18.9689        187
  18.9874        168
  19.0060        176
  19.0246        188
  19.0432        152
  19.0617        169
  19.0803        147
  19.0989        168
  19.1175        162
  19.1360        175
  19.1546        195
  19.1732        166
  19.1918        171
  19.2103        181
  19.2289        173
  19.2475        167
  19.2661        161
  19.2846        183
  19.3032        166
  19.3218        160
  19.3404        161
  19.3589        173
  19.3775        193
  19.3961        155
  19.4147        168
  19.4332        174
  19.4518        170
  19.4704        187
  19.4890        177
  19.5075        181
  19.5261        161
  19.5447        192
  19.5633        195
  19.5818        166
  19.6004        169
  19.6190        190
  19.6376        155
  19.6561        176
  19.6747        190
  19.6933        175
  19.7119        181
  19.7305        164
  19.7490        170
  19.7676        174
  19.7862        173
  19.8048        188
  19.8233        196
  19.8419        180
  19.8605        149
  19.8791        172
  19.8976        193
  19.9162        187
  19.9348        164
  19.9534        158
  19.9719        197
  19.9905        166
  20.0091        172
  20.0277        201
  20.0462        170
  20.0648        184
  20.0834        186
  20.1020        175
  20.1205        185
  20.1391        186
  20.1577        165
  20.1763        167
  20.1948        169
  20.2134        179
  20.2320        191
  20.2506        161
  20.2691        183
  20.2877        181
  20.3063        188
  20.3249        180
  20.3434        192
  20.3620        184
  20.3806        174
  20.3992        189
  20.4177        153
  20.4363        169
  20.4549        186
  20.4735        181
