; (content of file Y:\Sam\Apurva-07-20-2022\puck4\ML_20220718_47_SJD_4_LaB6-4min.raw)
_FILEVERSION = 3
_SAMPLE = ML_20220718_47_SJD_4_LaB6-4min
_+SAMPLE = 
_SITE = USA
_USER = Administrator
_GONIOMETER_CODE = 20
; Goniometer : D8 theta/2theta, stage : Unknown
_ATTACHMENTS_CODE = 0
_GONIOMETER_RADIUS = 200.5
_FIXED_DIVSLIT = 0.6
_FIXED_SAMPLESLIT = 0
_SOLLER_SLITS = 2
_FIXED_DETSLIT = 9.55
_MONOCHROMATOR = 0
; Incident beam monochromator : None
_SOLLER_SLITS_2 = N
_THIN_FILM = N
_BETA_FILTER = Y
_FIXED_ANTISLIT = 5.89
_ANALYZER_CODE = 0
; Received beam analyzer : None
_DATEMEASURED = "26-Jul-2022 13:47:21"
_WL_UNIT = A
_WL1 = 1.5406
_WL2 = 1.54439
_WL3 = 1.39222
_WLRATIO = 0.5
_ANODE = Cu
_V4_INF_CREATOR = XRDWizard
_V4_INF_CREATOR_VERSION = V2.9.0.22
_V4_INF_WIZARD_VERSION = V2.9.0.22
_V4_INF_WIZARD_ADDINS = V2.9.0.22
_V4_INF_WIZARD_DOCTYPE = XRD
_V4_INF_OSUSER = McQueenLab
_V4_INF_USER = Administrator
_V4_INF_SITE = USA
_V4_INF_SAMPLEID = ML_20220718_47_SJD_4_LaB6-4min

; Data for range 1
_DRIVE = COUPLED
_STEPTIME = 11.28
_STEPSIZE = 0.0185756
_STEPMODE = C
_START = 5
_THETA = 2.5
_2THETA = 5
_KHI = 0
_PHI = 0
_X = 0
_Y = 0
_Z = 0
_DETECTOR = 5
; Detector type : Unknown
_DETECTORSLIT = unkn
_AUX1 = 0
_AUX2 = 0
_AUX3 = 0
_TIMESTARTED = 15
_TEMP_RATE = -1
_TEMP_DELAY = -1
_KV = 40
_MA = 40
_RANGE_WL = 1.5406
_3DPLANE = 0
_V4_ADDITIONALDETECTOR = 257
_V4_PSD2THETA = 3.3662
_V4_PSDCHANNEL1 = 0
_V4_PSDAPERTURE = 12.68
_V4_PSDTYPE = 5
_V4_PSDFIXED = 0
_V4_COUNTERS_MASK = 4096
_V4_DRIVES_MASK = 0
_V4_ENCODERS_MASK = 0
_2THETACOUNTS = 1
; 2THETA  PSD
   5.0000        252
   5.0186        250
   5.0372        232
   5.0557        255
   5.0743        275
   5.0929        254
   5.1115        250
   5.1300        276
   5.1486        264
   5.1672        285
   5.1858        224
   5.2043        261
   5.2229        258
   5.2415        218
   5.2601        263
   5.2786        248
   5.2972        239
   5.3158        257
   5.3344        251
   5.3529        221
   5.3715        241
   5.3901        249
   5.4087        245
   5.4272        207
   5.4458        234
   5.4644        230
   5.4830        206
   5.5015        229
   5.5201        213
   5.5387        229
   5.5573        214
   5.5758        253
   5.5944        232
   5.6130        238
   5.6316        202
   5.6501        219
   5.6687        203
   5.6873        219
   5.7059        218
   5.7244        201
   5.7430        216
   5.7616        223
   5.7802        215
   5.7988        238
   5.8173        193
   5.8359        180
   5.8545        218
   5.8731        186
   5.8916        183
   5.9102        219
   5.9288        215
   5.9474        178
   5.9659        208
   5.9845        197
   6.0031        183
   6.0217        196
   6.0402        189
   6.0588        193
   6.0774        176
   6.0960        184
   6.1145        205
   6.1331        191
   6.1517        208
   6.1703        177
   6.1888        194
   6.2074        165
   6.2260        167
   6.2446        171
   6.2631        195
   6.2817        184
   6.3003        191
   6.3189        197
   6.3374        158
   6.3560        192
   6.3746        153
   6.3932        157
   6.4117        187
   6.4303        174
   6.4489        178
   6.4675        192
   6.4860        185
   6.5046        172
   6.5232        184
   6.5418        178
   6.5604        177
   6.5789        156
   6.5975        158
   6.6161        176
   6.6347        168
   6.6532        186
   6.6718        174
   6.6904        179
   6.7090        181
   6.7275        184
   6.7461        164
   6.7647        159
   6.7833        165
   6.8018        175
   6.8204        167
   6.8390        178
   6.8576        183
   6.8761        191
   6.8947        163
   6.9133        153
   6.9319        159
   6.9504        173
   6.9690        167
   6.9876        165
   7.0062        156
   7.0247        146
   7.0433        154
   7.0619        164
   7.0805        164
   7.0990        150
   7.1176        160
   7.1362        169
   7.1548        158
   7.1733        154
   7.1919        178
   7.2105        151
   7.2291        159
   7.2476        168
   7.2662        169
   7.2848        160
   7.3034        162
   7.3220        146
   7.3405        148
   7.3591        181
   7.3777        164
   7.3963        175
   7.4148        148
   7.4334        160
   7.4520        154
   7.4706        147
   7.4891        172
   7.5077        146
   7.5263        167
   7.5449        158
   7.5634        174
   7.5820        165
   7.6006        168
   7.6192        157
   7.6377        171
   7.6563        196
   7.6749        174
   7.6935        195
   7.7120        170
   7.7306        193
   7.7492        204
   7.7678        201
   7.7863        179
   7.8049        177
   7.8235        174
   7.8421        200
   7.8606        192
   7.8792        206
   7.8978        179
   7.9164        185
   7.9349        173
   7.9535        178
   7.9721        183
   7.9907        182
   8.0092        180
   8.0278        222
   8.0464        182
   8.0650        179
   8.0835        195
   8.1021        193
   8.1207        198
   8.1393        208
   8.1579        209
   8.1764        189
   8.1950        178
   8.2136        205
   8.2322        196
   8.2507        205
   8.2693        201
   8.2879        193
   8.3065        166
   8.3250        180
   8.3436        219
   8.3622        184
   8.3808        232
   8.3993        224
   8.4179        188
   8.4365        201
   8.4551        193
   8.4736        170
   8.4922        194
   8.5108        191
   8.5294        207
   8.5479        171
   8.5665        184
   8.5851        213
   8.6037        192
   8.6222        202
   8.6408        216
   8.6594        220
   8.6780        195
   8.6965        229
   8.7151        219
   8.7337        206
   8.7523        200
   8.7708        237
   8.7894        197
   8.8080        233
   8.8266        203
   8.8451        195
   8.8637        212
   8.8823        202
   8.9009        212
   8.9195        222
   8.9380        231
   8.9566        202
   8.9752        228
   8.9938        208
   9.0123        201
   9.0309        209
   9.0495        206
   9.0681        223
   9.0866        247
   9.1052        219
   9.1238        214
   9.1424        196
   9.1609        220
   9.1795        241
   9.1981        220
   9.2167        217
   9.2352        209
   9.2538        224
   9.2724        216
   9.2910        217
   9.3095        215
   9.3281        214
   9.3467        209
   9.3653        217
   9.3838        240
   9.4024        221
   9.4210        228
   9.4396        244
   9.4581        219
   9.4767        200
   9.4953        211
   9.5139        213
   9.5324        205
   9.5510        230
   9.5696        249
   9.5882        221
   9.6067        216
   9.6253        225
   9.6439        243
   9.6625        213
   9.6811        222
   9.6996        201
   9.7182        225
   9.7368        252
   9.7554        227
   9.7739        214
   9.7925        206
   9.8111        249
   9.8297        232
   9.8482        245
   9.8668        232
   9.8854        242
   9.9040        268
   9.9225        255
   9.9411        245
   9.9597        234
   9.9783        234
   9.9968        263
  10.0154        199
  10.0340        220
  10.0526        224
  10.0711        228
  10.0897        234
  10.1083        244
  10.1269        228
  10.1454        255
  10.1640        257
  10.1826        210
  10.2012        269
  10.2197        220
  10.2383        241
  10.2569        256
  10.2755        242
  10.2940        233
  10.3126        229
  10.3312        240
  10.3498        251
  10.3683        245
  10.3869        250
  10.4055        236
  10.4241        247
  10.4427        222
  10.4612        244
  10.4798        248
  10.4984        238
  10.5170        251
  10.5355        258
  10.5541        264
  10.5727        276
  10.5913        229
  10.6098        259
  10.6284        234
  10.6470        241
  10.6656        270
  10.6841        243
  10.7027        248
  10.7213        246
  10.7399        251
  10.7584        228
  10.7770        259
  10.7956        241
  10.8142        222
  10.8327        234
  10.8513        233
  10.8699        246
  10.8885        236
  10.9070        242
  10.9256        240
  10.9442        239
  10.9628        237
  10.9813        225
  10.9999        216
  11.0185        253
  11.0371        215
  11.0556        209
  11.0742        237
  11.0928        246
  11.1114        249
  11.1299        227
  11.1485        261
  11.1671        224
  11.1857        247
  11.2043        245
  11.2228        216
  11.2414        243
  11.2600        230
  11.2786        235
  11.2971        234
  11.3157        258
  11.3343        245
  11.3529        252
  11.3714        252
  11.3900        241
  11.4086        238
  11.4272        241
  11.4457        273
  11.4643        244
  11.4829        254
  11.5015        260
  11.5200        190
  11.5386        244
  11.5572        252
  11.5758        214
  11.5943        244
  11.6129        239
  11.6315        244
  11.6501        235
  11.6686        227
  11.6872        241
  11.7058        242
  11.7244        231
  11.7429        223
  11.7615        210
  11.7801        245
  11.7987        228
  11.8172        227
  11.8358        228
  11.8544        242
  11.8730        233
  11.8915        212
  11.9101        214
  11.9287        249
  11.9473        210
  11.9659        253
  11.9844        235
  12.0030        261
  12.0216        212
  12.0402        236
  12.0587        240
  12.0773        211
  12.0959        228
  12.1145        249
  12.1330        229
  12.1516        202
  12.1702        210
  12.1888        217
  12.2073        202
  12.2259        232
  12.2445        215
  12.2631        205
  12.2816        219
  12.3002        213
  12.3188        226
  12.3374        213
  12.3559        243
  12.3745        223
  12.3931        216
  12.4117        205
  12.4302        219
  12.4488        216
  12.4674        224
  12.4860        222
  12.5045        190
  12.5231        208
  12.5417        194
  12.5603        214
  12.5788        203
  12.5974        214
  12.6160        205
  12.6346        207
  12.6531        210
  12.6717        196
  12.6903        211
  12.7089        214
  12.7274        222
  12.7460        214
  12.7646        221
  12.7832        194
  12.8018        221
  12.8203        209
  12.8389        218
  12.8575        207
  12.8761        211
  12.8946        218
  12.9132        190
  12.9318        232
  12.9504        201
  12.9689        228
  12.9875        221
  13.0061        191
  13.0247        217
  13.0432        223
  13.0618        189
  13.0804        198
  13.0990        202
  13.1175        203
  13.1361        212
  13.1547        202
  13.1733        220
  13.1918        213
  13.2104        181
  13.2290        205
  13.2476        212
  13.2661        209
  13.2847        205
  13.3033        197
  13.3219        185
  13.3404        179
  13.3590        190
  13.3776        186
  13.3962        204
  13.4147        194
  13.4333        178
  13.4519        198
  13.4705        199
  13.4890        198
  13.5076        188
  13.5262        174
  13.5448        168
  13.5634        203
  13.5819        212
  13.6005        180
  13.6191        210
  13.6377        193
  13.6562        225
  13.6748        156
  13.6934        195
  13.7120        220
  13.7305        188
  13.7491        208
  13.7677        177
  13.7863        189
  13.8048        177
  13.8234        195
  13.8420        171
  13.8606        183
  13.8791        197
  13.8977        186
  13.9163        166
  13.9349        179
  13.9534        181
  13.9720        190
  13.9906        172
  14.0092        172
  14.0277        185
  14.0463        187
  14.0649        186
  14.0835        163
  14.1020        167
  14.1206        180
  14.1392        197
  14.1578        190
  14.1763        192
  14.1949        185
  14.2135        170
  14.2321        156
  14.2506        157
  14.2692        169
  14.2878        170
  14.3064        170
  14.3250        180
  14.3435        155
  14.3621        164
  14.3807        180
  14.3993        220
  14.4178        168
  14.4364        171
  14.4550        180
  14.4736        159
  14.4921        181
  14.5107        173
  14.5293        179
  14.5479        159
  14.5664        170
  14.5850        155
  14.6036        198
  14.6222        168
  14.6407        147
  14.6593        168
  14.6779        147
  14.6965        166
  14.7150        189
  14.7336        159
  14.7522        163
  14.7708        184
  14.7893        179
  14.8079        158
  14.8265        186
  14.8451        170
  14.8636        177
  14.8822        166
  14.9008        164
  14.9194        192
  14.9379        173
  14.9565        159
  14.9751        162
  14.9937        172
  15.0122        183
  15.0308        175
  15.0494        165
  15.0680        166
  15.0866        157
  15.1051        170
  15.1237        180
  15.1423        171
  15.1609        143
  15.1794        157
  15.1980        157
  15.2166        153
  15.2352        149
  15.2537        165
  15.2723        167
  15.2909        181
  15.3095        170
  15.3280        167
  15.3466        176
  15.3652        205
  15.3838        164
  15.4023        174
  15.4209        182
  15.4395        189
  15.4581        164
  15.4766        158
  15.4952        180
  15.5138        136
  15.5324        182
  15.5509        174
  15.5695        194
  15.5881        172
  15.6067        156
  15.6252        169
  15.6438        166
  15.6624        165
  15.6810        159
  15.6995        148
  15.7181        134
  15.7367        168
  15.7553        178
  15.7738        169
  15.7924        176
  15.8110        154
  15.8296        152
  15.8482        143
  15.8667        148
  15.8853        175
  15.9039        153
  15.9225        185
  15.9410        171
  15.9596        161
  15.9782        148
  15.9968        157
  16.0153        151
  16.0339        168
  16.0525        156
  16.0711        178
  16.0896        163
  16.1082        193
  16.1268        163
  16.1454        173
  16.1639        148
  16.1825        147
  16.2011        176
  16.2197        163
  16.2382        142
  16.2568        140
  16.2754        187
  16.2940        161
  16.3125        148
  16.3311        157
  16.3497        140
  16.3683        175
  16.3868        168
  16.4054        164
  16.4240        168
  16.4426        154
  16.4611        154
  16.4797        148
  16.4983        163
  16.5169        162
  16.5354        172
  16.5540        144
  16.5726        156
  16.5912        190
  16.6097        155
  16.6283        149
  16.6469        180
  16.6655        169
  16.6841        171
  16.7026        186
  16.7212        164
  16.7398        169
  16.7584        178
  16.7769        184
  16.7955        146
  16.8141        192
  16.8327        128
  16.8512        163
  16.8698        157
  16.8884        178
  16.9070        165
  16.9255        150
  16.9441        162
  16.9627        165
  16.9813        187
  16.9998        131
  17.0184        163
  17.0370        165
  17.0556        148
  17.0741        187
  17.0927        176
  17.1113        180
  17.1299        180
  17.1484        156
  17.1670        176
  17.1856        155
  17.2042        167
  17.2227        165
  17.2413        162
  17.2599        150
  17.2785        154
  17.2970        164
  17.3156        162
  17.3342        165
  17.3528        145
  17.3713        175
  17.3899        151
  17.4085        153
  17.4271        167
  17.4457        168
  17.4642        175
  17.4828        161
  17.5014        173
  17.5200        139
  17.5385        168
  17.5571        159
  17.5757        173
  17.5943        158
  17.6128        161
  17.6314        162
  17.6500        153
  17.6686        165
  17.6871        163
  17.7057        153
  17.7243        168
  17.7429        143
  17.7614        141
  17.7800        156
  17.7986        165
  17.8172        139
  17.8357        159
  17.8543        178
  17.8729        151
  17.8915        152
  17.9100        163
  17.9286        152
  17.9472        162
  17.9658        178
  17.9843        162
  18.0029        173
  18.0215        166
  18.0401        166
  18.0586        150
  18.0772        173
  18.0958        171
  18.1144        153
  18.1329        161
  18.1515        169
  18.1701        179
  18.1887        188
  18.2073        173
  18.2258        168
  18.2444        156
  18.2630        154
  18.2816        166
  18.3001        184
  18.3187        173
  18.3373        138
  18.3559        164
  18.3744        137
  18.3930        185
  18.4116        135
  18.4302        151
  18.4487        161
  18.4673        167
  18.4859        167
  18.5045        160
  18.5230        184
  18.5416        175
  18.5602        149
  18.5788        172
  18.5973        181
  18.6159        156
  18.6345        152
  18.6531        158
  18.6716        167
  18.6902        169
  18.7088        166
  18.7274        167
  18.7459        174
  18.7645        151
  18.7831        171
  18.8017        154
  18.8202        180
  18.8388        176
  18.8574        154
  18.8760        180
  18.8945        170
  18.9131        164
  18.9317        187
  18.9503        182
  18.9689        152
  18.9874        161
  19.0060        160
  19.0246        166
  19.0432        162
  19.0617        173
  19.0803        151
  19.0989        171
  19.1175        155
  19.1360        169
  19.1546        157
  19.1732        171
  19.1918        183
  19.2103        186
  19.2289        174
  19.2475        166
  19.2661        173
  19.2846        150
  19.3032        164
  19.3218        162
  19.3404        186
  19.3589        154
  19.3775        187
  19.3961        173
  19.4147        195
  19.4332        179
  19.4518        172
  19.4704        176
  19.4890        183
  19.5075        170
  19.5261        149
  19.5447        164
  19.5633        164
  19.5818        185
  19.6004        175
  19.6190        197
  19.6376        196
  19.6561        177
  19.6747        177
  19.6933        173
  19.7119        179
  19.7305        184
  19.7490        176
  19.7676        178
  19.7862        167
  19.8048        181
  19.8233        170
  19.8419        176
  19.8605        174
  19.8791        139
  19.8976        163
  19.9162        171
  19.9348        189
  19.9534        177
  19.9719        164
  19.9905        192
  20.0091        206
  20.0277        161
  20.0462        184
  20.0648        185
  20.0834        173
  20.1020        168
  20.1205        160
  20.1391        185
  20.1577        193
  20.1763        182
  20.1948        177
  20.2134        189
  20.2320        161
  20.2506        157
  20.2691        164
  20.2877        181
  20.3063        191
  20.3249        202
  20.3434        166
  20.3620        160
  20.3806        197
  20.3992        190
  20.4177        188
  20.4363        178
  20.4549        179
  20.4735        191
