;,2THETA,
5.0000,140
5.0186,106
5.0372,110
5.0557,131
5.0743,118
5.0929,143
5.1115,104
5.1300,152
5.1486,123
5.1672,108
5.1858,115
5.2043,120
5.2229,124
5.2415,118
5.2601,114
5.2786,121
5.2972,123
5.3158,119
5.3344,117
5.3529,113
5.3715,105
5.3901,111
5.4087,108
5.4272,110
5.4458,107
5.4644,93
5.4830,117
5.5015,100
5.5201,100
5.5387,102
5.5573,112
5.5758,106
5.5944,80
5.6130,112
5.6316,107
5.6501,99
5.6687,110
5.6873,99
5.7059,90
5.7244,83
5.7430,115
5.7616,94
5.7802,87
5.7988,107
5.8173,101
5.8359,93
5.8545,79
5.8731,119
5.8916,95
5.9102,111
5.9288,78
5.9474,98
5.9659,105
5.9845,109
6.0031,93
6.0217,94
6.0402,78
6.0588,92
6.0774,80
6.0960,99
6.1145,83
6.1331,86
6.1517,102
6.1703,115
6.1888,91
6.2074,97
6.2260,97
6.2446,102
6.2631,85
6.2817,95
6.3003,95
6.3189,86
6.3374,80
6.3560,86
6.3746,62
6.3932,96
6.4117,101
6.4303,83
6.4489,92
6.4675,71
6.4860,88
6.5046,89
6.5232,84
6.5418,72
6.5604,91
6.5789,93
6.5975,87
6.6161,82
6.6347,96
6.6532,83
6.6718,86
6.6904,90
6.7090,87
6.7275,77
6.7461,95
6.7647,82
6.7833,87
6.8018,87
6.8204,78
6.8390,87
6.8576,77
6.8761,84
6.8947,87
6.9133,93
6.9319,78
6.9504,67
6.9690,83
6.9876,76
7.0062,70
7.0247,79
7.0433,66
7.0619,79
7.0805,72
7.0990,69
7.1176,70
7.1362,67
7.1548,84
7.1733,80
7.1919,70
7.2105,82
7.2291,71
7.2476,75
7.2662,82
7.2848,64
7.3034,75
7.3220,82
7.3405,84
7.3591,90
7.3777,74
7.3963,90
7.4148,77
7.4334,73
7.4520,90
7.4706,80
7.4891,73
7.5077,71
7.5263,64
7.5449,85
7.5634,100
7.5820,86
7.6006,82
7.6192,76
7.6377,86
7.6563,65
7.6749,79
7.6935,89
7.7120,85
7.7306,104
7.7492,82
7.7678,73
7.7863,88
7.8049,86
7.8235,90
7.8421,84
7.8606,92
7.8792,95
7.8978,72
7.9164,101
7.9349,90
7.9535,110
7.9721,99
7.9907,77
8.0092,80
8.0278,81
8.0464,94
8.0650,92
8.0835,87
8.1021,95
8.1207,94
8.1393,90
8.1579,108
8.1764,103
8.1950,103
8.2136,99
8.2322,95
8.2507,72
8.2693,87
8.2879,76
8.3065,83
8.3250,101
8.3436,101
8.3622,69
8.3808,93
8.3993,76
8.4179,90
8.4365,115
8.4551,103
8.4736,91
8.4922,107
8.5108,93
8.5294,116
8.5479,85
8.5665,100
8.5851,83
8.6037,106
8.6222,75
8.6408,98
8.6594,108
8.6780,96
8.6965,97
8.7151,88
8.7337,87
8.7523,107
8.7708,109
8.7894,96
8.8080,122
8.8266,117
8.8451,106
8.8637,90
8.8823,108
8.9009,104
8.9195,93
8.9380,82
8.9566,97
8.9752,100
8.9938,102
9.0123,102
9.0309,109
9.0495,99
9.0681,94
9.0866,109
9.1052,98
9.1238,96
9.1424,104
9.1609,102
9.1795,117
9.1981,105
9.2167,111
9.2352,109
9.2538,80
9.2724,104
9.2910,91
9.3095,114
9.3281,123
9.3467,108
9.3653,97
9.3838,99
9.4024,110
9.4210,110
9.4396,107
9.4581,119
9.4767,104
9.4953,111
9.5139,111
9.5324,98
9.5510,118
9.5696,136
9.5882,105
9.6067,98
9.6253,113
9.6439,109
9.6625,115
9.6811,99
9.6996,112
9.7182,118
9.7368,90
9.7554,116
9.7739,125
9.7925,133
9.8111,117
9.8297,115
9.8482,122
9.8668,94
9.8854,132
9.9040,132
9.9225,113
9.9411,106
9.9597,142
9.9783,112
9.9968,127
10.0154,103
10.0340,119
10.0526,119
10.0711,113
10.0897,143
10.1083,103
10.1269,134
10.1454,110
10.1640,120
10.1826,108
10.2012,117
10.2197,116
10.2383,135
10.2569,105
10.2755,127
10.2940,114
10.3126,138
10.3312,116
10.3498,126
10.3683,111
10.3869,128
10.4055,122
10.4241,112
10.4427,127
10.4612,112
10.4798,113
10.4984,120
10.5170,119
10.5355,140
10.5541,129
10.5727,123
10.5913,113
10.6098,103
10.6284,111
10.6470,102
10.6656,120
10.6841,117
10.7027,113
10.7213,123
10.7399,121
10.7584,107
10.7770,130
10.7956,133
10.8142,116
10.8327,106
10.8513,125
10.8699,112
10.8885,118
10.9070,129
10.9256,128
10.9442,119
10.9628,114
10.9813,113
10.9999,124
11.0185,113
11.0371,117
11.0556,103
11.0742,105
11.0928,102
11.1114,113
11.1299,112
11.1485,97
11.1671,124
11.1857,91
11.2043,113
11.2228,92
11.2414,116
11.2600,100
11.2786,117
11.2971,112
11.3157,104
11.3343,124
11.3529,111
11.3714,126
11.3900,124
11.4086,109
11.4272,120
11.4457,100
11.4643,109
11.4829,109
11.5015,123
11.5200,128
11.5386,120
11.5572,120
11.5758,106
11.5943,111
11.6129,117
11.6315,98
11.6501,115
11.6686,119
11.6872,94
11.7058,102
11.7244,107
11.7429,107
11.7615,132
11.7801,122
11.7987,96
11.8172,87
11.8358,114
11.8544,92
11.8730,139
11.8915,107
11.9101,104
11.9287,105
11.9473,111
11.9659,103
11.9844,111
12.0030,111
12.0216,117
12.0402,116
12.0587,119
12.0773,102
12.0959,136
12.1145,107
12.1330,104
12.1516,116
12.1702,107
12.1888,101
12.2073,116
12.2259,99
12.2445,114
12.2631,125
12.2816,102
12.3002,109
12.3188,116
12.3374,107
12.3559,88
12.3745,100
12.3931,112
12.4117,110
12.4302,103
12.4488,117
12.4674,102
12.4860,93
12.5045,109
12.5231,111
12.5417,102
12.5603,108
12.5788,114
12.5974,109
12.6160,90
12.6346,106
12.6531,112
12.6717,107
12.6903,86
12.7089,110
12.7274,92
12.7460,113
12.7646,95
12.7832,102
12.8018,107
12.8203,112
12.8389,112
12.8575,92
12.8761,94
12.8946,87
12.9132,100
12.9318,96
12.9504,106
12.9689,110
12.9875,98
13.0061,102
13.0247,109
13.0432,92
13.0618,88
13.0804,115
13.0990,98
13.1175,102
13.1361,96
13.1547,96
13.1733,83
13.1918,99
13.2104,103
13.2290,95
13.2476,100
13.2661,90
13.2847,86
13.3033,110
13.3219,89
13.3404,112
13.3590,97
13.3776,98
13.3962,108
13.4147,82
13.4333,83
13.4519,107
13.4705,85
13.4890,113
13.5076,94
13.5262,96
13.5448,91
13.5634,97
13.5819,96
13.6005,87
13.6191,106
13.6377,91
13.6562,98
13.6748,91
13.6934,90
13.7120,95
13.7305,83
13.7491,109
13.7677,103
13.7863,95
13.8048,86
13.8234,103
13.8420,80
13.8606,93
13.8791,96
13.8977,90
13.9163,81
13.9349,102
13.9534,86
13.9720,98
13.9906,90
14.0092,101
14.0277,103
14.0463,77
14.0649,86
14.0835,99
14.1020,94
14.1206,83
14.1392,66
14.1578,82
14.1763,68
14.1949,79
14.2135,82
14.2321,99
14.2506,93
14.2692,95
14.2878,101
14.3064,81
14.3250,87
14.3435,96
14.3621,73
14.3807,91
14.3993,105
14.4178,85
14.4364,91
14.4550,85
14.4736,89
14.4921,72
14.5107,99
14.5293,74
14.5479,88
14.5664,78
14.5850,70
14.6036,86
14.6222,77
14.6407,82
14.6593,92
14.6779,77
14.6965,69
14.7150,100
14.7336,85
14.7522,86
14.7708,68
14.7893,93
14.8079,79
14.8265,79
14.8451,78
14.8636,79
14.8822,80
14.9008,77
14.9194,55
14.9379,81
14.9565,76
14.9751,80
14.9937,103
15.0122,67
15.0308,67
15.0494,73
15.0680,69
15.0866,85
15.1051,84
15.1237,89
15.1423,89
15.1609,73
15.1794,83
15.1980,78
15.2166,86
15.2352,86
15.2537,64
15.2723,85
15.2909,91
15.3095,68
15.3280,91
15.3466,76
15.3652,79
15.3838,93
15.4023,90
15.4209,67
15.4395,83
15.4581,81
15.4766,78
15.4952,66
15.5138,87
15.5324,88
15.5509,75
15.5695,90
15.5881,67
15.6067,75
15.6252,82
15.6438,79
15.6624,81
15.6810,85
15.6995,65
15.7181,81
15.7367,96
15.7553,78
15.7738,78
15.7924,79
15.8110,80
15.8296,74
15.8482,80
15.8667,75
15.8853,77
15.9039,81
15.9225,77
15.9410,76
15.9596,72
15.9782,70
15.9968,87
16.0153,76
16.0339,65
16.0525,84
16.0711,71
16.0896,72
16.1082,78
16.1268,84
16.1454,91
16.1639,68
16.1825,84
16.2011,92
16.2197,68
16.2382,71
16.2568,78
16.2754,66
16.2940,71
16.3125,81
16.3311,71
16.3497,76
16.3683,60
16.3868,68
16.4054,76
16.4240,76
16.4426,81
16.4611,80
16.4797,87
16.4983,76
16.5169,64
16.5354,72
16.5540,86
16.5726,82
16.5912,82
16.6097,77
16.6283,68
16.6469,88
16.6655,74
16.6841,71
16.7026,95
16.7212,77
16.7398,74
16.7584,89
16.7769,68
16.7955,68
16.8141,87
16.8327,88
16.8512,86
16.8698,77
16.8884,83
16.9070,80
16.9255,85
16.9441,86
16.9627,83
16.9813,76
16.9998,98
17.0184,71
17.0370,84
17.0556,72
17.0741,75
17.0927,70
17.1113,84
17.1299,84
17.1484,70
17.1670,67
17.1856,72
17.2042,69
17.2227,88
17.2413,72
17.2599,82
17.2785,94
17.2970,94
17.3156,76
17.3342,63
17.3528,60
17.3713,77
17.3899,80
17.4085,80
17.4271,79
17.4457,65
17.4642,74
17.4828,93
17.5014,70
17.5200,75
17.5385,71
17.5571,84
17.5757,94
17.5943,58
17.6128,79
17.6314,77
17.6500,80
17.6686,78
17.6871,97
17.7057,62
17.7243,63
17.7429,64
17.7614,77
17.7800,86
17.7986,75
17.8172,74
17.8357,87
17.8543,80
17.8729,111
17.8915,93
17.9100,80
17.9286,79
17.9472,86
17.9658,94
17.9843,74
18.0029,94
18.0215,84
18.0401,70
18.0586,67
18.0772,75
18.0958,65
18.1144,62
18.1329,91
18.1515,93
18.1701,80
18.1887,77
18.2073,98
18.2258,72
18.2444,89
18.2630,76
18.2816,55
18.3001,82
18.3187,73
18.3373,75
18.3559,64
18.3744,64
18.3930,70
18.4116,97
18.4302,67
18.4487,77
18.4673,62
18.4859,83
18.5045,62
18.5230,69
18.5416,82
18.5602,65
18.5788,91
18.5973,106
18.6159,91
18.6345,77
18.6531,94
18.6716,88
18.6902,82
18.7088,80
18.7274,87
18.7459,80
18.7645,90
18.7831,66
18.8017,73
18.8202,88
18.8388,91
18.8574,94
18.8760,91
18.8945,87
18.9131,94
18.9317,84
18.9503,80
18.9689,80
18.9874,103
19.0060,73
19.0246,96
19.0432,72
19.0617,79
19.0803,72
19.0989,79
19.1175,88
19.1360,85
19.1546,86
19.1732,95
19.1918,96
19.2103,86
19.2289,71
19.2475,81
19.2661,97
19.2846,93
19.3032,93
19.3218,83
19.3404,77
19.3589,78
19.3775,87
19.3961,81
19.4147,79
19.4332,70
19.4518,80
19.4704,80
19.4890,82
19.5075,74
19.5261,95
19.5447,66
19.5633,87
19.5818,81
19.6004,76
19.6190,80
19.6376,72
19.6561,87
19.6747,100
19.6933,72
19.7119,85
19.7305,85
19.7490,83
19.7676,93
19.7862,103
19.8048,84
19.8233,86
19.8419,97
19.8605,72
19.8791,89
19.8976,92
19.9162,97
19.9348,98
19.9534,97
19.9719,71
19.9905,108
20.0091,90
20.0277,88
20.0462,80
20.0648,98
20.0834,104
20.1020,94
20.1205,86
20.1391,73
20.1577,86
20.1763,80
20.1948,91
20.2134,75
20.2320,87
20.2506,76
20.2691,90
20.2877,74
20.3063,90
20.3249,88
20.3434,87
20.3620,66
20.3806,90
20.3992,77
20.4177,72
20.4363,72
20.4549,82
20.4735,101
20.4921,85
20.5106,78
20.5292,75
20.5478,87
20.5664,90
20.5849,100
20.6035,98
20.6221,77
20.6407,93
20.6592,106
20.6778,86
20.6964,75
20.7150,67
20.7335,84
20.7521,86
20.7707,102
20.7893,119
20.8078,83
20.8264,93
20.8450,90
20.8636,80
20.8821,89
20.9007,91
20.9193,92
20.9379,104
20.9564,99
20.9750,98
20.9936,92
21.0122,77
21.0307,110
21.0493,111
21.0679,97
21.0865,94
21.1050,98
21.1236,102
21.1422,99
21.1608,117
21.1793,117
21.1979,132
21.2165,159
21.2351,156
21.2537,149
21.2722,135
21.2908,159
21.3094,172
21.3280,195
21.3465,227
21.3651,248
21.3837,186
21.4023,188
21.4208,176
21.4394,142
21.4580,95
21.4766,118
21.4951,117
21.5137,117
21.5323,117
21.5509,97
21.5694,117
21.5880,108
21.6066,98
21.6252,98
21.6437,85
21.6623,87
21.6809,94
21.6995,108
21.7180,85
21.7366,96
21.7552,84
21.7738,92
21.7923,85
21.8109,95
21.8295,71
21.8481,98
21.8666,84
21.8852,100
21.9038,97
21.9224,104
21.9409,79
21.9595,101
21.9781,84
21.9967,100
22.0152,105
22.0338,95
22.0524,93
22.0710,101
22.0896,92
22.1081,86
22.1267,75
22.1453,97
22.1639,90
22.1824,94
22.2010,83
22.2196,88
22.2382,78
22.2567,96
22.2753,86
22.2939,91
22.3125,88
22.3310,111
22.3496,84
22.3682,88
22.3868,101
22.4053,99
22.4239,93
22.4425,99
22.4611,84
22.4796,108
22.4982,86
22.5168,86
22.5354,103
22.5539,94
22.5725,94
22.5911,101
22.6097,106
22.6282,97
22.6468,82
22.6654,87
22.6840,105
22.7025,94
22.7211,91
22.7397,90
22.7583,85
22.7768,87
22.7954,100
22.8140,99
22.8326,100
22.8512,91
22.8697,71
22.8883,102
22.9069,94
22.9255,99
22.9440,83
22.9626,83
22.9812,98
22.9998,88
23.0183,105
23.0369,90
23.0555,100
23.0741,92
23.0926,93
23.1112,110
23.1298,105
23.1484,80
23.1669,103
23.1855,98
23.2041,104
23.2227,91
23.2412,115
23.2598,93
23.2784,86
23.2970,98
23.3155,106
23.3341,85
23.3527,103
23.3713,96
23.3898,105
23.4084,108
23.4270,113
23.4456,113
23.4641,97
23.4827,95
23.5013,97
23.5199,81
23.5384,76
23.5570,75
23.5756,126
23.5942,117
23.6128,97
23.6313,107
23.6499,108
23.6685,94
23.6871,85
23.7056,90
23.7242,79
23.7428,100
23.7614,98
23.7799,118
23.7985,93
23.8171,85
23.8357,123
23.8542,91
23.8728,112
23.8914,82
23.9100,87
23.9285,89
23.9471,99
23.9657,92
23.9843,93
24.0028,113
24.0214,113
24.0400,95
24.0586,104
24.0771,109
24.0957,85
24.1143,96
24.1329,102
24.1514,88
24.1700,85
24.1886,116
24.2072,86
24.2257,102
24.2443,109
24.2629,114
24.2815,97
24.3000,121
24.3186,108
24.3372,113
24.3558,117
24.3744,94
24.3929,108
24.4115,96
24.4301,82
24.4487,95
24.4672,101
24.4858,71
24.5044,106
24.5230,89
24.5415,92
24.5601,81
24.5787,102
24.5973,106
24.6158,95
24.6344,104
24.6530,101
24.6716,97
24.6901,112
24.7087,98
24.7273,71
24.7459,78
24.7644,102
24.7830,117
24.8016,83
24.8202,128
24.8387,111
24.8573,98
24.8759,80
24.8945,83
24.9130,87
24.9316,102
24.9502,99
24.9688,96
24.9873,99
25.0059,88
25.0245,93
25.0431,92
25.0616,88
25.0802,85
25.0988,90
25.1174,81
25.1360,99
25.1545,106
25.1731,103
25.1917,105
25.2103,104
25.2288,116
25.2474,101
25.2660,103
25.2846,90
25.3031,88
25.3217,95
25.3403,109
25.3589,107
25.3774,85
25.3960,82
25.4146,96
25.4332,92
25.4517,103
25.4703,98
25.4889,103
25.5075,90
25.5260,106
25.5446,104
25.5632,105
25.5818,97
25.6003,99
25.6189,90
25.6375,89
25.6561,100
25.6746,94
25.6932,108
25.7118,91
25.7304,103
25.7489,85
25.7675,104
25.7861,105
25.8047,95
25.8232,104
25.8418,98
25.8604,81
25.8790,103
25.8976,92
25.9161,84
25.9347,99
25.9533,86
25.9719,115
25.9904,98
26.0090,102
26.0276,82
26.0462,93
26.0647,74
26.0833,69
26.1019,81
26.1205,78
26.1390,87
26.1576,87
26.1762,94
26.1948,67
26.2133,94
26.2319,97
26.2505,88
26.2691,99
26.2876,75
26.3062,90
26.3248,96
26.3434,72
26.3619,80
26.3805,88
26.3991,103
26.4177,86
26.4362,101
26.4548,84
26.4734,98
26.4920,97
26.5105,91
26.5291,96
26.5477,100
26.5663,97
26.5848,83
26.6034,81
26.6220,99
26.6406,81
26.6591,81
26.6777,79
26.6963,85
26.7149,87
26.7335,86
26.7520,98
26.7706,104
26.7892,100
26.8078,95
26.8263,95
26.8449,96
26.8635,92
26.8821,81
26.9006,74
26.9192,87
26.9378,99
26.9564,88
26.9749,86
26.9935,85
27.0121,73
27.0307,91
27.0492,81
27.0678,94
27.0864,111
27.1050,86
27.1235,83
27.1421,99
27.1607,91
27.1793,99
27.1978,108
27.2164,118
27.2350,134
27.2536,113
27.2721,101
27.2907,104
27.3093,93
27.3279,91
27.3464,93
27.3650,105
27.3836,94
27.4022,80
27.4207,85
27.4393,81
27.4579,92
27.4765,89
27.4951,92
27.5136,101
27.5322,73
27.5508,72
27.5694,86
27.5879,86
27.6065,110
27.6251,90
27.6437,75
27.6622,71
27.6808,75
27.6994,79
27.7180,79
27.7365,67
27.7551,78
27.7737,91
27.7923,72
27.8108,86
27.8294,73
27.8480,82
27.8666,69
27.8851,91
27.9037,90
27.9223,89
27.9409,90
27.9594,62
27.9780,90
27.9966,91
28.0152,84
28.0337,77
28.0523,74
28.0709,77
28.0895,81
28.1080,87
28.1266,87
28.1452,71
28.1638,74
28.1823,73
28.2009,98
28.2195,104
28.2381,89
28.2567,79
28.2752,79
28.2938,87
28.3124,67
28.3310,84
28.3495,66
28.3681,91
28.3867,73
28.4053,76
28.4238,71
28.4424,86
28.4610,73
28.4796,78
28.4981,72
28.5167,81
28.5353,80
28.5539,95
28.5724,96
28.5910,70
28.6096,82
28.6282,95
28.6467,67
28.6653,94
28.6839,84
28.7025,84
28.7210,81
28.7396,81
28.7582,79
28.7768,85
28.7953,78
28.8139,77
28.8325,90
28.8511,81
28.8696,81
28.8882,93
28.9068,89
28.9254,85
28.9439,76
28.9625,78
28.9811,74
28.9997,75
29.0183,75
29.0368,74
29.0554,82
29.0740,95
29.0926,79
29.1111,77
29.1297,83
29.1483,80
29.1669,65
29.1854,70
29.2040,74
29.2226,56
29.2412,78
29.2597,78
29.2783,67
29.2969,83
29.3155,75
29.3340,65
29.3526,68
29.3712,78
29.3898,87
29.4083,65
29.4269,69
29.4455,86
29.4641,83
29.4826,88
29.5012,74
29.5198,83
29.5384,70
29.5569,87
29.5755,61
29.5941,61
29.6127,86
29.6312,66
29.6498,67
29.6684,72
29.6870,70
29.7055,87
29.7241,83
29.7427,86
29.7613,84
29.7799,81
29.7984,76
29.8170,84
29.8356,73
29.8542,81
29.8727,81
29.8913,70
29.9099,75
29.9285,76
29.9470,63
29.9656,73
29.9842,79
30.0028,74
30.0213,70
30.0399,79
30.0585,71
30.0771,78
30.0956,84
30.1142,78
30.1328,77
30.1514,64
30.1699,54
30.1885,78
30.2071,83
30.2257,79
30.2442,72
30.2628,83
30.2814,75
30.3000,79
30.3185,94
30.3371,100
30.3557,110
30.3743,158
30.3928,173
30.4114,111
30.4300,109
30.4486,108
30.4671,151
30.4857,118
30.5043,99
30.5229,83
30.5415,80
30.5600,81
30.5786,77
30.5972,76
30.6158,74
30.6343,86
30.6529,81
30.6715,71
30.6901,73
30.7086,68
30.7272,65
30.7458,96
30.7644,63
30.7829,86
30.8015,80
30.8201,73
30.8387,71
30.8572,80
30.8758,73
30.8944,68
30.9130,88
30.9315,72
30.9501,63
30.9687,53
30.9873,61
31.0058,75
31.0244,63
31.0430,69
31.0616,72
31.0801,74
31.0987,76
31.1173,69
31.1359,67
31.1544,75
31.1730,71
31.1916,55
31.2102,66
31.2287,65
31.2473,64
31.2659,58
31.2845,69
31.3030,87
31.3216,72
31.3402,87
31.3588,78
31.3774,71
31.3959,68
31.4145,75
31.4331,55
31.4517,84
31.4702,70
31.4888,70
31.5074,67
31.5260,65
31.5445,61
31.5631,60
31.5817,72
31.6003,65
31.6188,62
31.6374,67
31.6560,67
31.6746,75
31.6931,57
31.7117,63
31.7303,65
31.7489,77
31.7674,54
31.7860,67
31.8046,82
31.8232,74
31.8417,56
31.8603,63
31.8789,57
31.8975,45
31.9160,65
31.9346,79
31.9532,67
31.9718,68
31.9903,65
32.0089,75
32.0275,71
32.0461,58
32.0646,53
32.0832,56
32.1018,65
32.1204,58
32.1390,82
32.1575,59
32.1761,55
32.1947,46
32.2133,56
32.2318,73
32.2504,59
32.2690,69
32.2876,59
32.3061,67
32.3247,65
32.3433,63
32.3619,74
32.3804,83
32.3990,70
32.4176,64
32.4362,76
32.4547,80
32.4733,71
32.4919,76
32.5105,56
32.5290,56
32.5476,85
32.5662,84
32.5848,59
32.6033,61
32.6219,67
32.6405,73
32.6591,59
32.6776,60
32.6962,69
32.7148,70
32.7334,59
32.7519,72
32.7705,65
32.7891,64
32.8077,60
32.8262,52
32.8448,64
32.8634,60
32.8820,59
32.9006,65
32.9191,67
32.9377,72
32.9563,60
32.9749,45
32.9934,59
33.0120,52
33.0306,64
33.0492,66
33.0677,48
33.0863,63
33.1049,54
33.1235,53
33.1420,59
33.1606,54
33.1792,74
33.1978,57
33.2163,62
33.2349,63
33.2535,53
33.2721,69
33.2906,69
33.3092,60
33.3278,46
33.3464,63
33.3649,55
33.3835,68
33.4021,72
33.4207,56
33.4392,47
33.4578,58
33.4764,50
33.4950,52
33.5135,46
33.5321,45
33.5507,54
33.5693,48
33.5878,69
33.6064,63
33.6250,44
33.6436,59
33.6622,56
33.6807,58
33.6993,47
33.7179,41
33.7365,47
33.7550,57
33.7736,69
33.7922,47
33.8108,60
33.8293,55
33.8479,49
33.8665,53
33.8851,58
33.9036,65
33.9222,67
33.9408,44
33.9594,37
33.9779,58
33.9965,55
34.0151,60
34.0337,46
34.0522,53
34.0708,46
34.0894,71
34.1080,50
34.1265,49
34.1451,44
34.1637,65
34.1823,59
34.2008,56
34.2194,50
34.2380,39
34.2566,52
34.2751,57
34.2937,51
34.3123,47
34.3309,49
34.3494,69
34.3680,66
34.3866,42
34.4052,61
34.4238,67
34.4423,68
34.4609,46
34.4795,40
34.4981,54
34.5166,55
34.5352,55
34.5538,65
34.5724,51
34.5909,56
34.6095,60
34.6281,63
34.6467,57
34.6652,71
34.6838,64
34.7024,57
34.7210,57
34.7395,68
34.7581,71
34.7767,78
34.7953,70
34.8138,59
34.8324,54
34.8510,74
34.8696,70
34.8881,62
34.9067,64
34.9253,65
34.9439,52
34.9624,55
34.9810,51
34.9996,60
35.0182,55
35.0367,62
35.0553,62
35.0739,51
35.0925,60
35.1110,57
35.1296,51
35.1482,41
35.1668,54
35.1854,44
35.2039,52
35.2225,46
35.2411,57
35.2597,53
35.2782,36
35.2968,51
35.3154,64
35.3340,47
35.3525,44
35.3711,56
35.3897,44
35.4083,60
35.4268,53
35.4454,47
35.4640,48
35.4826,60
35.5011,47
35.5197,59
35.5383,50
35.5569,50
35.5754,41
35.5940,48
35.6126,43
35.6312,42
35.6497,46
35.6683,54
35.6869,50
35.7055,53
35.7240,48
35.7426,44
35.7612,46
35.7798,53
35.7983,52
35.8169,47
35.8355,47
35.8541,58
35.8726,46
35.8912,53
35.9098,47
35.9284,43
35.9469,37
35.9655,58
35.9841,38
36.0027,49
36.0213,61
36.0398,51
36.0584,53
36.0770,42
36.0956,49
36.1141,37
36.1327,48
36.1513,39
36.1699,40
36.1884,56
36.2070,62
36.2256,45
36.2442,42
36.2627,53
36.2813,51
36.2999,46
36.3185,51
36.3370,40
36.3556,50
36.3742,56
36.3928,51
36.4113,49
36.4299,40
36.4485,51
36.4671,56
36.4856,35
36.5042,56
36.5228,43
36.5414,48
36.5599,46
36.5785,44
36.5971,44
36.6157,45
36.6342,55
36.6528,50
36.6714,43
36.6900,31
36.7085,51
36.7271,48
36.7457,50
36.7643,50
36.7829,51
36.8014,41
36.8200,39
36.8386,42
36.8572,40
36.8757,30
36.8943,41
36.9129,42
36.9315,65
36.9500,41
36.9686,44
36.9872,49
37.0058,41
37.0243,38
37.0429,34
37.0615,47
37.0801,46
37.0986,40
37.1172,28
37.1358,41
37.1544,54
37.1729,51
37.1915,43
37.2101,49
37.2287,45
37.2472,43
37.2658,48
37.2844,54
37.3030,45
37.3215,50
37.3401,43
37.3587,47
37.3773,50
37.3958,46
37.4144,77
37.4330,88
37.4516,66
37.4701,64
37.4887,57
37.5073,49
37.5259,64
37.5445,44
37.5630,78
37.5816,44
37.6002,58
37.6188,39
37.6373,54
37.6559,42
37.6745,36
37.6931,47
37.7116,49
37.7302,47
37.7488,51
37.7674,40
37.7859,49
37.8045,47
37.8231,36
37.8417,30
37.8602,45
37.8788,46
37.8974,39
37.9160,38
37.9345,43
37.9531,47
37.9717,40
37.9903,46
38.0088,36
38.0274,36
38.0460,40
38.0646,44
38.0831,41
38.1017,47
38.1203,44
38.1389,43
38.1574,46
38.1760,41
38.1946,33
38.2132,51
38.2317,35
38.2503,41
38.2689,45
38.2875,51
38.3061,36
38.3246,33
38.3432,50
38.3618,44
38.3804,29
38.3989,43
38.4175,44
38.4361,41
38.4547,38
38.4732,31
