; (content of file Y:\Sam\Apurva-07-20-2022\puck4\ML_20220718_1_SJD_0_LaB6-4min.raw)
_FILEVERSION = 3
_SAMPLE = ML_20220718_1_SJD_0_LaB6-4mi
_+SAMPLE = 
_SITE = USA
_USER = Administrator
_GONIOMETER_CODE = 20
; Goniometer : D8 theta/2theta, stage : Unknown
_ATTACHMENTS_CODE = 0
_GONIOMETER_RADIUS = 200.5
_FIXED_DIVSLIT = 0.6
_FIXED_SAMPLESLIT = 0
_SOLLER_SLITS = 2
_FIXED_DETSLIT = 9.55
_MONOCHROMATOR = 0
; Incident beam monochromator : None
_SOLLER_SLITS_2 = N
_THIN_FILM = N
_BETA_FILTER = Y
_FIXED_ANTISLIT = 5.89
_ANALYZER_CODE = 0
; Received beam analyzer : None
_DATEMEASURED = "21-Jul-2022 02:42:14"
_WL_UNIT = A
_WL1 = 1.5406
_WL2 = 1.54439
_WL3 = 1.39222
_WLRATIO = 0.5
_ANODE = Cu
_V4_INF_CREATOR = XRDWizard
_V4_INF_CREATOR_VERSION = V2.9.0.22
_V4_INF_WIZARD_VERSION = V2.9.0.22
_V4_INF_WIZARD_ADDINS = V2.9.0.22
_V4_INF_WIZARD_DOCTYPE = XRD
_V4_INF_OSUSER = McQueenLab
_V4_INF_USER = Administrator
_V4_INF_SITE = USA
_V4_INF_SAMPLEID = ML_20220718_1_SJD_0_LaB6-4mi

; Data for range 1
_DRIVE = COUPLED
_STEPTIME = 11.28
_STEPSIZE = 0.0185756
_STEPMODE = C
_START = 5
_THETA = 2.5
_2THETA = 5
_KHI = 0
_PHI = 0
_X = 0
_Y = 0
_Z = 0
_DETECTOR = 5
; Detector type : Unknown
_DETECTORSLIT = unkn
_AUX1 = 0
_AUX2 = 0
_AUX3 = 0
_TIMESTARTED = 15
_TEMP_RATE = -1
_TEMP_DELAY = -1
_KV = 40
_MA = 40
_RANGE_WL = 1.5406
_3DPLANE = 0
_V4_ADDITIONALDETECTOR = 257
_V4_PSD2THETA = 3.3878
_V4_PSDCHANNEL1 = 0
_V4_PSDAPERTURE = 12.68
_V4_PSDTYPE = 5
_V4_PSDFIXED = 0
_V4_COUNTERS_MASK = 4096
_V4_DRIVES_MASK = 0
_V4_ENCODERS_MASK = 0
_2THETACOUNTS = 1
; 2THETA  PSD
   5.0000        276
   5.0186        233
   5.0372        257
   5.0557        273
   5.0743        245
   5.0929        254
   5.1115        257
   5.1300        259
   5.1486        243
   5.1672        235
   5.1858        241
   5.2043        252
   5.2229        251
   5.2415        243
   5.2601        234
   5.2786        250
   5.2972        250
   5.3158        249
   5.3344        196
   5.3529        225
   5.3715        217
   5.3901        245
   5.4087        221
   5.4272        211
   5.4458        217
   5.4644        229
   5.4830        225
   5.5015        229
   5.5201        260
   5.5387        204
   5.5573        215
   5.5758        228
   5.5944        236
   5.6130        197
   5.6316        204
   5.6501        191
   5.6687        223
   5.6873        210
   5.7059        210
   5.7244        209
   5.7430        242
   5.7616        206
   5.7802        226
   5.7988        202
   5.8173        221
   5.8359        197
   5.8545        192
   5.8731        195
   5.8916        194
   5.9102        194
   5.9288        178
   5.9474        199
   5.9659        201
   5.9845        180
   6.0031        208
   6.0217        197
   6.0402        178
   6.0588        212
   6.0774        203
   6.0960        212
   6.1145        201
   6.1331        201
   6.1517        196
   6.1703        169
   6.1888        194
   6.2074        192
   6.2260        200
   6.2446        152
   6.2631        203
   6.2817        188
   6.3003        200
   6.3189        175
   6.3374        191
   6.3560        182
   6.3746        199
   6.3932        168
   6.4117        184
   6.4303        164
   6.4489        197
   6.4675        171
   6.4860        155
   6.5046        186
   6.5232        173
   6.5418        170
   6.5604        184
   6.5789        185
   6.5975        163
   6.6161        169
   6.6347        151
   6.6532        160
   6.6718        167
   6.6904        152
   6.7090        165
   6.7275        173
   6.7461        176
   6.7647        175
   6.7833        152
   6.8018        162
   6.8204        174
   6.8390        157
   6.8576        165
   6.8761        152
   6.8947        167
   6.9133        162
   6.9319        147
   6.9504        150
   6.9690        162
   6.9876        150
   7.0062        177
   7.0247        140
   7.0433        173
   7.0619        165
   7.0805        157
   7.0990        174
   7.1176        172
   7.1362        157
   7.1548        152
   7.1733        154
   7.1919        151
   7.2105        145
   7.2291        176
   7.2476        164
   7.2662        167
   7.2848        165
   7.3034        177
   7.3220        142
   7.3405        148
   7.3591        155
   7.3777        143
   7.3963        151
   7.4148        184
   7.4334        145
   7.4520        159
   7.4706        190
   7.4891        184
   7.5077        166
   7.5263        168
   7.5449        173
   7.5634        163
   7.5820        179
   7.6006        195
   7.6192        161
   7.6377        152
   7.6563        163
   7.6749        184
   7.6935        148
   7.7120        164
   7.7306        176
   7.7492        194
   7.7678        163
   7.7863        188
   7.8049        199
   7.8235        168
   7.8421        156
   7.8606        159
   7.8792        182
   7.8978        184
   7.9164        163
   7.9349        170
   7.9535        185
   7.9721        198
   7.9907        174
   8.0092        188
   8.0278        172
   8.0464        173
   8.0650        183
   8.0835        199
   8.1021        202
   8.1207        177
   8.1393        182
   8.1579        175
   8.1764        174
   8.1950        183
   8.2136        185
   8.2322        190
   8.2507        188
   8.2693        170
   8.2879        194
   8.3065        200
   8.3250        180
   8.3436        172
   8.3622        188
   8.3808        200
   8.3993        170
   8.4179        161
   8.4365        192
   8.4551        170
   8.4736        178
   8.4922        185
   8.5108        197
   8.5294        173
   8.5479        215
   8.5665        192
   8.5851        187
   8.6037        184
   8.6222        191
   8.6408        175
   8.6594        188
   8.6780        197
   8.6965        225
   8.7151        214
   8.7337        215
   8.7523        212
   8.7708        217
   8.7894        209
   8.8080        199
   8.8266        189
   8.8451        194
   8.8637        197
   8.8823        198
   8.9009        192
   8.9195        205
   8.9380        187
   8.9566        196
   8.9752        219
   8.9938        195
   9.0123        188
   9.0309        206
   9.0495        224
   9.0681        225
   9.0866        193
   9.1052        208
   9.1238        218
   9.1424        198
   9.1609        202
   9.1795        186
   9.1981        218
   9.2167        204
   9.2352        218
   9.2538        221
   9.2724        206
   9.2910        216
   9.3095        225
   9.3281        214
   9.3467        239
   9.3653        207
   9.3838        220
   9.4024        223
   9.4210        203
   9.4396        199
   9.4581        209
   9.4767        228
   9.4953        229
   9.5139        215
   9.5324        229
   9.5510        227
   9.5696        211
   9.5882        212
   9.6067        194
   9.6253        218
   9.6439        215
   9.6625        219
   9.6811        215
   9.6996        211
   9.7182        245
   9.7368        245
   9.7554        207
   9.7739        226
   9.7925        221
   9.8111        219
   9.8297        234
   9.8482        216
   9.8668        216
   9.8854        225
   9.9040        237
   9.9225        241
   9.9411        261
   9.9597        239
   9.9783        236
   9.9968        230
  10.0154        220
  10.0340        244
  10.0526        247
  10.0711        227
  10.0897        246
  10.1083        243
  10.1269        235
  10.1454        223
  10.1640        240
  10.1826        216
  10.2012        223
  10.2197        254
  10.2383        205
  10.2569        209
  10.2755        236
  10.2940        251
  10.3126        257
  10.3312        209
  10.3498        255
  10.3683        241
  10.3869        247
  10.4055        253
  10.4241        222
  10.4427        244
  10.4612        206
  10.4798        223
  10.4984        246
  10.5170        222
  10.5355        198
  10.5541        222
  10.5727        230
  10.5913        263
  10.6098        218
  10.6284        228
  10.6470        260
  10.6656        254
  10.6841        234
  10.7027        242
  10.7213        253
  10.7399        241
  10.7584        238
  10.7770        246
  10.7956        226
  10.8142        271
  10.8327        222
  10.8513        207
  10.8699        251
  10.8885        222
  10.9070        260
  10.9256        237
  10.9442        229
  10.9628        238
  10.9813        232
  10.9999        220
  11.0185        236
  11.0371        239
  11.0556        223
  11.0742        224
  11.0928        228
  11.1114        204
  11.1299        234
  11.1485        236
  11.1671        246
  11.1857        245
  11.2043        213
  11.2228        218
  11.2414        240
  11.2600        260
  11.2786        222
  11.2971        172
  11.3157        218
  11.3343        237
  11.3529        219
  11.3714        246
  11.3900        252
  11.4086        222
  11.4272        208
  11.4457        237
  11.4643        240
  11.4829        200
  11.5015        258
  11.5200        229
  11.5386        233
  11.5572        201
  11.5758        238
  11.5943        202
  11.6129        244
  11.6315        229
  11.6501        257
  11.6686        226
  11.6872        229
  11.7058        222
  11.7244        232
  11.7429        195
  11.7615        224
  11.7801        209
  11.7987        199
  11.8172        228
  11.8358        223
  11.8544        226
  11.8730        230
  11.8915        210
  11.9101        207
  11.9287        218
  11.9473        206
  11.9659        225
  11.9844        234
  12.0030        216
  12.0216        240
  12.0402        191
  12.0587        227
  12.0773        226
  12.0959        205
  12.1145        228
  12.1330        232
  12.1516        214
  12.1702        219
  12.1888        207
  12.2073        217
  12.2259        209
  12.2445        202
  12.2631        206
  12.2816        212
  12.3002        225
  12.3188        227
  12.3374        221
  12.3559        217
  12.3745        187
  12.3931        222
  12.4117        226
  12.4302        222
  12.4488        213
  12.4674        227
  12.4860        218
  12.5045        206
  12.5231        205
  12.5417        212
  12.5603        217
  12.5788        230
  12.5974        216
  12.6160        190
  12.6346        236
  12.6531        217
  12.6717        191
  12.6903        224
  12.7089        191
  12.7274        208
  12.7460        204
  12.7646        200
  12.7832        229
  12.8018        222
  12.8203        228
  12.8389        193
  12.8575        218
  12.8761        194
  12.8946        226
  12.9132        183
  12.9318        225
  12.9504        206
  12.9689        198
  12.9875        204
  13.0061        209
  13.0247        188
  13.0432        201
  13.0618        203
  13.0804        195
  13.0990        206
  13.1175        200
  13.1361        188
  13.1547        167
  13.1733        198
  13.1918        170
  13.2104        178
  13.2290        206
  13.2476        200
  13.2661        182
  13.2847        187
  13.3033        202
  13.3219        189
  13.3404        184
  13.3590        197
  13.3776        209
  13.3962        164
  13.4147        194
  13.4333        179
  13.4519        177
  13.4705        221
  13.4890        193
  13.5076        200
  13.5262        182
  13.5448        171
  13.5634        194
  13.5819        199
  13.6005        207
  13.6191        164
  13.6377        163
  13.6562        183
  13.6748        175
  13.6934        173
  13.7120        175
  13.7305        182
  13.7491        173
  13.7677        186
  13.7863        164
  13.8048        201
  13.8234        182
  13.8420        177
  13.8606        177
  13.8791        192
  13.8977        176
  13.9163        180
  13.9349        179
  13.9534        189
  13.9720        177
  13.9906        193
  14.0092        157
  14.0277        175
  14.0463        184
  14.0649        166
  14.0835        145
  14.1020        180
  14.1206        178
  14.1392        165
  14.1578        198
  14.1763        174
  14.1949        186
  14.2135        188
  14.2321        181
  14.2506        175
  14.2692        177
  14.2878        168
  14.3064        157
  14.3250        180
  14.3435        190
  14.3621        178
  14.3807        178
  14.3993        143
  14.4178        162
  14.4364        174
  14.4550        136
  14.4736        163
  14.4921        188
  14.5107        173
  14.5293        173
  14.5479        142
  14.5664        177
  14.5850        173
  14.6036        178
  14.6222        202
  14.6407        185
  14.6593        168
  14.6779        170
  14.6965        180
  14.7150        166
  14.7336        175
  14.7522        149
  14.7708        178
  14.7893        165
  14.8079        164
  14.8265        172
  14.8451        156
  14.8636        170
  14.8822        173
  14.9008        171
  14.9194        170
  14.9379        162
  14.9565        182
  14.9751        161
  14.9937        157
  15.0122        177
  15.0308        157
  15.0494        153
  15.0680        162
  15.0866        166
  15.1051        181
  15.1237        186
  15.1423        180
  15.1609        136
  15.1794        176
  15.1980        187
  15.2166        132
  15.2352        171
  15.2537        152
  15.2723        154
  15.2909        193
  15.3095        162
  15.3280        184
  15.3466        168
  15.3652        160
  15.3838        149
  15.4023        166
  15.4209        171
  15.4395        178
  15.4581        148
  15.4766        141
  15.4952        156
  15.5138        155
  15.5324        181
  15.5509        173
  15.5695        158
  15.5881        159
  15.6067        162
  15.6252        199
  15.6438        168
  15.6624        143
  15.6810        156
  15.6995        153
  15.7181        189
  15.7367        144
  15.7553        141
  15.7738        158
  15.7924        164
  15.8110        173
  15.8296        166
  15.8482        166
  15.8667        144
  15.8853        175
  15.9039        178
  15.9225        166
  15.9410        139
  15.9596        155
  15.9782        160
  15.9968        135
  16.0153        153
  16.0339        173
  16.0525        164
  16.0711        176
  16.0896        159
  16.1082        138
  16.1268        149
  16.1454        138
  16.1639        144
  16.1825        133
  16.2011        148
  16.2197        175
  16.2382        161
  16.2568        145
  16.2754        158
  16.2940        169
  16.3125        157
  16.3311        126
  16.3497        148
  16.3683        161
  16.3868        181
  16.4054        182
  16.4240        153
  16.4426        155
  16.4611        177
  16.4797        154
  16.4983        141
  16.5169        140
  16.5354        135
  16.5540        161
  16.5726        164
  16.5912        147
  16.6097        162
  16.6283        120
  16.6469        164
  16.6655        147
  16.6841        161
  16.7026        147
  16.7212        167
  16.7398        169
  16.7584        129
  16.7769        161
  16.7955        165
  16.8141        167
  16.8327        170
  16.8512        183
  16.8698        166
  16.8884        158
  16.9070        164
  16.9255        174
  16.9441        138
  16.9627        171
  16.9813        161
  16.9998        157
  17.0184        167
  17.0370        171
  17.0556        147
  17.0741        157
  17.0927        131
  17.1113        170
  17.1299        156
  17.1484        158
  17.1670        135
  17.1856        151
  17.2042        172
  17.2227        135
  17.2413        160
  17.2599        151
  17.2785        158
  17.2970        178
  17.3156        165
  17.3342        154
  17.3528        146
  17.3713        177
  17.3899        138
  17.4085        185
  17.4271        156
  17.4457        154
  17.4642        162
  17.4828        176
  17.5014        184
  17.5200        164
  17.5385        161
  17.5571        144
  17.5757        140
  17.5943        149
  17.6128        154
  17.6314        159
  17.6500        161
  17.6686        180
  17.6871        151
  17.7057        164
  17.7243        153
  17.7429        159
  17.7614        157
  17.7800        155
  17.7986        174
  17.8172        173
  17.8357        163
  17.8543        163
  17.8729        180
  17.8915        154
  17.9100        152
  17.9286        160
  17.9472        158
  17.9658        158
  17.9843        168
  18.0029        173
  18.0215        154
  18.0401        165
  18.0586        172
  18.0772        133
  18.0958        138
  18.1144        157
  18.1329        162
  18.1515        156
  18.1701        153
  18.1887        180
  18.2073        165
  18.2258        186
  18.2444        147
  18.2630        155
  18.2816        149
  18.3001        157
  18.3187        160
  18.3373        155
  18.3559        173
  18.3744        166
  18.3930        170
  18.4116        174
  18.4302        160
  18.4487        182
  18.4673        154
  18.4859        155
  18.5045        168
  18.5230        158
  18.5416        151
  18.5602        153
  18.5788        168
  18.5973        149
  18.6159        172
  18.6345        152
  18.6531        140
  18.6716        162
  18.6902        165
  18.7088        166
  18.7274        170
  18.7459        178
  18.7645        134
  18.7831        179
  18.8017        169
  18.8202        160
  18.8388        157
  18.8574        168
  18.8760        155
  18.8945        177
  18.9131        145
  18.9317        171
  18.9503        165
  18.9689        162
  18.9874        151
  19.0060        174
  19.0246        173
  19.0432        194
  19.0617        167
  19.0803        185
  19.0989        158
  19.1175        187
  19.1360        164
  19.1546        185
  19.1732        157
  19.1918        184
  19.2103        154
  19.2289        171
  19.2475        160
  19.2661        153
  19.2846        176
  19.3032        176
  19.3218        177
  19.3404        182
  19.3589        168
  19.3775        170
  19.3961        182
  19.4147        151
  19.4332        180
  19.4518        177
  19.4704        173
  19.4890        178
  19.5075        177
  19.5261        169
  19.5447        177
  19.5633        168
  19.5818        183
  19.6004        175
  19.6190        177
  19.6376        176
  19.6561        153
  19.6747        167
  19.6933        174
  19.7119        176
  19.7305        208
  19.7490        165
  19.7676        154
  19.7862        188
  19.8048        170
  19.8233        164
  19.8419        181
  19.8605        169
  19.8791        175
  19.8976        165
  19.9162        168
  19.9348        160
  19.9534        182
  19.9719        196
  19.9905        174
  20.0091        167
  20.0277        178
  20.0462        188
  20.0648        181
  20.0834        187
  20.1020        187
  20.1205        170
  20.1391        184
  20.1577        175
  20.1763        180
  20.1948        157
  20.2134        193
  20.2320        171
  20.2506        189
  20.2691        188
  20.2877        192
  20.3063        183
  20.3249        183
  20.3434        177
  20.3620        178
  20.3806        189
  20.3992        193
  20.4177        175
  20.4363        183
  20.4549        161
  20.4735        166
