; (content of file Y:\Sam\Apurva-07-20-2022\puck4\ML_20220718_1_SJD_0_LaB6-1min.raw)
_FILEVERSION = 3
_SAMPLE = ML_20220718_1_SJD_0_LaB6-1mi
_+SAMPLE = 
_SITE = USA
_USER = Administrator
_GONIOMETER_CODE = 20
; Goniometer : D8 theta/2theta, stage : Unknown
_ATTACHMENTS_CODE = 0
_GONIOMETER_RADIUS = 200.5
_FIXED_DIVSLIT = 0.6
_FIXED_SAMPLESLIT = 0
_SOLLER_SLITS = 2
_FIXED_DETSLIT = 9.55
_MONOCHROMATOR = 0
; Incident beam monochromator : None
_SOLLER_SLITS_2 = N
_THIN_FILM = N
_BETA_FILTER = Y
_FIXED_ANTISLIT = 5.89
_ANALYZER_CODE = 0
; Received beam analyzer : None
_DATEMEASURED = "21-Jul-2022 03:00:33"
_WL_UNIT = A
_WL1 = 1.5406
_WL2 = 1.54439
_WL3 = 1.39222
_WLRATIO = 0.5
_ANODE = Cu
_V4_INF_CREATOR = XRDWizard
_V4_INF_CREATOR_VERSION = V2.9.0.22
_V4_INF_WIZARD_VERSION = V2.9.0.22
_V4_INF_WIZARD_ADDINS = V2.9.0.22
_V4_INF_WIZARD_DOCTYPE = XRD
_V4_INF_OSUSER = McQueenLab
_V4_INF_USER = Administrator
_V4_INF_SITE = USA
_V4_INF_SAMPLEID = ML_20220718_1_SJD_0_LaB6-1mi

; Data for range 1
_DRIVE = COUPLED
_STEPTIME = 4.23
_STEPSIZE = 0.0185756
_STEPMODE = C
_START = 5
_THETA = 2.5
_2THETA = 5
_KHI = 0
_PHI = 0
_X = 0
_Y = 0
_Z = 0
_DETECTOR = 5
; Detector type : Unknown
_DETECTORSLIT = unkn
_AUX1 = 0
_AUX2 = 0
_AUX3 = 0
_TIMESTARTED = 15
_TEMP_RATE = -1
_TEMP_DELAY = -1
_KV = 40
_MA = 40
_RANGE_WL = 1.5406
_3DPLANE = 0
_V4_ADDITIONALDETECTOR = 257
_V4_PSD2THETA = 3.4374
_V4_PSDCHANNEL1 = 0
_V4_PSDAPERTURE = 12.68
_V4_PSDTYPE = 5
_V4_PSDFIXED = 0
_V4_COUNTERS_MASK = 4096
_V4_DRIVES_MASK = 0
_V4_ENCODERS_MASK = 0
_2THETACOUNTS = 1
; 2THETA  PSD
   5.0000         97
   5.0186         82
   5.0372        110
   5.0557         88
   5.0743         90
   5.0929         80
   5.1115         93
   5.1300         82
   5.1486         74
   5.1672         91
   5.1858        102
   5.2043         82
   5.2229         86
   5.2415         85
   5.2601         88
   5.2786        100
   5.2972         79
   5.3158         85
   5.3344         83
   5.3529         76
   5.3715         72
   5.3901         90
   5.4087         91
   5.4272         81
   5.4458         83
   5.4644         93
   5.4830         70
   5.5015         76
   5.5201         76
   5.5387         83
   5.5573         63
   5.5758         76
   5.5944         69
   5.6130         80
   5.6316         78
   5.6501         85
   5.6687         74
   5.6873         81
   5.7059         83
   5.7244         78
   5.7430         74
   5.7616         72
   5.7802         81
   5.7988         76
   5.8173         72
   5.8359         87
   5.8545         75
   5.8731         80
   5.8916         81
   5.9102         76
   5.9288         60
   5.9474         76
   5.9659         55
   5.9845         70
   6.0031         55
   6.0217         71
   6.0402         81
   6.0588         67
   6.0774         68
   6.0960         68
   6.1145         82
   6.1331         75
   6.1517         67
   6.1703         72
   6.1888         62
   6.2074         69
   6.2260         74
   6.2446         48
   6.2631         64
   6.2817         59
   6.3003         55
   6.3189         58
   6.3374         70
   6.3560         56
   6.3746         67
   6.3932         70
   6.4117         67
   6.4303         70
   6.4489         72
   6.4675         68
   6.4860         57
   6.5046         59
   6.5232         60
   6.5418         76
   6.5604         63
   6.5789         63
   6.5975         59
   6.6161         65
   6.6347         64
   6.6532         74
   6.6718         62
   6.6904         70
   6.7090         53
   6.7275         56
   6.7461         47
   6.7647         66
   6.7833         56
   6.8018         69
   6.8204         66
   6.8390         61
   6.8576         61
   6.8761         57
   6.8947         65
   6.9133         50
   6.9319         59
   6.9504         62
   6.9690         72
   6.9876         54
   7.0062         70
   7.0247         67
   7.0433         59
   7.0619         52
   7.0805         61
   7.0990         57
   7.1176         59
   7.1362         54
   7.1548         67
   7.1733         54
   7.1919         34
   7.2105         52
   7.2291         57
   7.2476         55
   7.2662         61
   7.2848         66
   7.3034         41
   7.3220         56
   7.3405         55
   7.3591         56
   7.3777         47
   7.3963         64
   7.4148         63
   7.4334         70
   7.4520         64
   7.4706         62
   7.4891         58
   7.5077         66
   7.5263         63
   7.5449         62
   7.5634         63
   7.5820         62
   7.6006         50
   7.6192         53
   7.6377         72
   7.6563         56
   7.6749         69
   7.6935         48
   7.7120         75
   7.7306         74
   7.7492         71
   7.7678         58
   7.7863         63
   7.8049         53
   7.8235         66
   7.8421         62
   7.8606         55
   7.8792         54
   7.8978         55
   7.9164         66
   7.9349         68
   7.9535         51
   7.9721         65
   7.9907         64
   8.0092         68
   8.0278         57
   8.0464         77
   8.0650         58
   8.0835         53
   8.1021         63
   8.1207         85
   8.1393         66
   8.1579         74
   8.1764         73
   8.1950         54
   8.2136         70
   8.2322         79
   8.2507         58
   8.2693         72
   8.2879         71
   8.3065         77
   8.3250         80
   8.3436         80
   8.3622         73
   8.3808         68
   8.3993         64
   8.4179         72
   8.4365         64
   8.4551         72
   8.4736         69
   8.4922         58
   8.5108         68
   8.5294         73
   8.5479         72
   8.5665         66
   8.5851         73
   8.6037         85
   8.6222         75
   8.6408         72
   8.6594         69
   8.6780         61
   8.6965         75
   8.7151         61
   8.7337         59
   8.7523         89
   8.7708         58
   8.7894         76
   8.8080         66
   8.8266         89
   8.8451         87
   8.8637         59
   8.8823         69
   8.9009         75
   8.9195         82
   8.9380         74
   8.9566         79
   8.9752         78
   8.9938         79
   9.0123         77
   9.0309         83
   9.0495         73
   9.0681         78
   9.0866         68
   9.1052         69
   9.1238         85
   9.1424         78
   9.1609         68
   9.1795         66
   9.1981         81
   9.2167         84
   9.2352         81
   9.2538         72
   9.2724         71
   9.2910         70
   9.3095         78
   9.3281         78
   9.3467         81
   9.3653         82
   9.3838         78
   9.4024         88
   9.4210         80
   9.4396         83
   9.4581        101
   9.4767         76
   9.4953         85
   9.5139         62
   9.5324         86
   9.5510         78
   9.5696         66
   9.5882         82
   9.6067         77
   9.6253         73
   9.6439         55
   9.6625         80
   9.6811         83
   9.6996         97
   9.7182         94
   9.7368         86
   9.7554         89
   9.7739         78
   9.7925         76
   9.8111         84
   9.8297         80
   9.8482         84
   9.8668         86
   9.8854         83
   9.9040         91
   9.9225         92
   9.9411         89
   9.9597         72
   9.9783        109
   9.9968         81
  10.0154         81
  10.0340         93
  10.0526         92
  10.0711         74
  10.0897        115
  10.1083         71
  10.1269         80
  10.1454         94
  10.1640         89
  10.1826         89
  10.2012         90
  10.2197         81
  10.2383         71
  10.2569         93
  10.2755         71
  10.2940         74
  10.3126         83
  10.3312         90
  10.3498         94
  10.3683        100
  10.3869         80
  10.4055         86
  10.4241         76
  10.4427         82
  10.4612         88
  10.4798         88
  10.4984        104
  10.5170         86
  10.5355         84
  10.5541         94
  10.5727         72
  10.5913         88
  10.6098         89
  10.6284         80
  10.6470         94
  10.6656         67
  10.6841        101
  10.7027         91
  10.7213         80
  10.7399        100
  10.7584         87
  10.7770         89
  10.7956         87
  10.8142        101
  10.8327         88
  10.8513         88
  10.8699         85
  10.8885         85
  10.9070         81
  10.9256         81
  10.9442         73
  10.9628         95
  10.9813         95
  10.9999         62
  11.0185         75
  11.0371         76
  11.0556         96
  11.0742         85
  11.0928         85
  11.1114        108
  11.1299         78
  11.1485         83
  11.1671         73
  11.1857         94
  11.2043         89
  11.2228         98
  11.2414         75
  11.2600         78
  11.2786         87
  11.2971         76
  11.3157         70
  11.3343         78
  11.3529         76
  11.3714         71
  11.3900         79
  11.4086         89
  11.4272         92
  11.4457         76
  11.4643         89
  11.4829         91
  11.5015         82
  11.5200         86
  11.5386         90
  11.5572         77
  11.5758         95
  11.5943         86
  11.6129         86
  11.6315         83
  11.6501         88
  11.6686         79
  11.6872         71
  11.7058        105
  11.7244        100
  11.7429         90
  11.7615         75
  11.7801         74
  11.7987         74
  11.8172         84
  11.8358         98
  11.8544         81
  11.8730         95
  11.8915         84
  11.9101         82
  11.9287         88
  11.9473         86
  11.9659        100
  11.9844         80
  12.0030         84
  12.0216         70
  12.0402         85
  12.0587        102
  12.0773         83
  12.0959         78
  12.1145         65
  12.1330         87
  12.1516         93
  12.1702         74
  12.1888         75
  12.2073         82
  12.2259         62
  12.2445         86
  12.2631         79
  12.2816         69
  12.3002         71
  12.3188         77
  12.3374         85
  12.3559         83
  12.3745         78
  12.3931         75
  12.4117         58
  12.4302         59
  12.4488         74
  12.4674         88
  12.4860         73
  12.5045         78
  12.5231         61
  12.5417         70
  12.5603         79
  12.5788         75
  12.5974         81
  12.6160         78
  12.6346         67
  12.6531         77
  12.6717         78
  12.6903         74
  12.7089         69
  12.7274         80
  12.7460         64
  12.7646         72
  12.7832         71
  12.8018         76
  12.8203         84
  12.8389         67
  12.8575         73
  12.8761         83
  12.8946         87
  12.9132         68
  12.9318         70
  12.9504         74
  12.9689         82
  12.9875         78
  13.0061         76
  13.0247         79
  13.0432         67
  13.0618         74
  13.0804         76
  13.0990         82
  13.1175         66
  13.1361         59
  13.1547         72
  13.1733         68
  13.1918         88
  13.2104         69
  13.2290         78
  13.2476         75
  13.2661         63
  13.2847         72
  13.3033         60
  13.3219         73
  13.3404         66
  13.3590         67
  13.3776         70
  13.3962         60
  13.4147         76
  13.4333         69
  13.4519         82
  13.4705         71
  13.4890         53
  13.5076         62
  13.5262         70
  13.5448         74
  13.5634         57
  13.5819         57
  13.6005         57
  13.6191         74
  13.6377         68
  13.6562         64
  13.6748         57
  13.6934         68
  13.7120         68
  13.7305         64
  13.7491         67
  13.7677         72
  13.7863         76
  13.8048         68
  13.8234         58
  13.8420         63
  13.8606         67
  13.8791         62
  13.8977         52
  13.9163         56
  13.9349         59
  13.9534         75
  13.9720         61
  13.9906         41
  14.0092         61
  14.0277         74
  14.0463         56
  14.0649         65
  14.0835         52
  14.1020         67
  14.1206         58
  14.1392         50
  14.1578         60
  14.1763         71
  14.1949         58
  14.2135         66
  14.2321         53
  14.2506         45
  14.2692         56
  14.2878         76
  14.3064         63
  14.3250         64
  14.3435         71
  14.3621         66
  14.3807         61
  14.3993         71
  14.4178         64
  14.4364         58
  14.4550         55
  14.4736         65
  14.4921         59
  14.5107         68
  14.5293         63
  14.5479         59
  14.5664         52
  14.5850         61
  14.6036         72
  14.6222         49
  14.6407         70
  14.6593         39
  14.6779         56
  14.6965         67
  14.7150         67
  14.7336         58
  14.7522         66
  14.7708         71
  14.7893         47
  14.8079         74
  14.8265         70
  14.8451         57
  14.8636         69
  14.8822         77
  14.9008         67
  14.9194         67
  14.9379         66
  14.9565         68
  14.9751         64
  14.9937         57
  15.0122         61
  15.0308         78
  15.0494         58
  15.0680         62
  15.0866         53
  15.1051         58
  15.1237         55
  15.1423         59
  15.1609         64
  15.1794         54
  15.1980         67
  15.2166         60
  15.2352         62
  15.2537         67
  15.2723         54
  15.2909         58
  15.3095         57
  15.3280         62
  15.3466         47
  15.3652         51
  15.3838         59
  15.4023         47
  15.4209         69
  15.4395         65
  15.4581         63
  15.4766         62
  15.4952         52
  15.5138         42
  15.5324         58
  15.5509         69
  15.5695         56
  15.5881         71
  15.6067         50
  15.6252         65
  15.6438         61
  15.6624         61
  15.6810         52
  15.6995         64
  15.7181         56
  15.7367         58
  15.7553         69
  15.7738         51
  15.7924         54
  15.8110         61
  15.8296         48
  15.8482         63
  15.8667         67
  15.8853         68
  15.9039         57
  15.9225         52
  15.9410         53
  15.9596         68
  15.9782         51
  15.9968         66
  16.0153         83
  16.0339         65
  16.0525         59
  16.0711         67
  16.0896         69
  16.1082         57
  16.1268         70
  16.1454         57
  16.1639         56
  16.1825         62
  16.2011         56
  16.2197         70
  16.2382         64
  16.2568         65
  16.2754         58
  16.2940         63
  16.3125         65
  16.3311         57
  16.3497         58
  16.3683         62
  16.3868         55
  16.4054         47
  16.4240         62
  16.4426         58
  16.4611         62
  16.4797         68
  16.4983         64
  16.5169         70
  16.5354         75
  16.5540         62
  16.5726         63
  16.5912         71
  16.6097         67
  16.6283         57
  16.6469         51
  16.6655         55
  16.6841         54
  16.7026         69
  16.7212         65
  16.7398         50
  16.7584         51
  16.7769         61
  16.7955         57
  16.8141         55
  16.8327         49
  16.8512         64
  16.8698         64
  16.8884         71
  16.9070         70
  16.9255         60
  16.9441         73
  16.9627         58
  16.9813         50
  16.9998         65
  17.0184         57
  17.0370         48
  17.0556         59
  17.0741         66
  17.0927         54
  17.1113         62
  17.1299         41
  17.1484         50
  17.1670         67
  17.1856         49
  17.2042         55
  17.2227         67
  17.2413         45
  17.2599         63
  17.2785         64
  17.2970         67
  17.3156         45
  17.3342         48
  17.3528         60
  17.3713         55
  17.3899         67
  17.4085         59
  17.4271         53
  17.4457         47
  17.4642         60
  17.4828         59
  17.5014         45
  17.5200         58
  17.5385         56
  17.5571         60
  17.5757         62
  17.5943         55
  17.6128         60
  17.6314         51
  17.6500         52
  17.6686         56
  17.6871         65
  17.7057         60
  17.7243         49
  17.7429         70
  17.7614         59
  17.7800         48
  17.7986         55
  17.8172         54
  17.8357         52
  17.8543         48
  17.8729         57
  17.8915         65
  17.9100         52
  17.9286         62
  17.9472         63
  17.9658         55
  17.9843         63
  18.0029         72
  18.0215         71
  18.0401         59
  18.0586         60
  18.0772         66
  18.0958         65
  18.1144         61
  18.1329         45
  18.1515         49
  18.1701         58
  18.1887         72
  18.2073         51
  18.2258         53
  18.2444         69
  18.2630         64
  18.2816         50
  18.3001         59
  18.3187         56
  18.3373         60
  18.3559         46
  18.3744         72
  18.3930         63
  18.4116         71
  18.4302         54
  18.4487         64
  18.4673         64
  18.4859         76
  18.5045         61
  18.5230         54
  18.5416         67
  18.5602         64
  18.5788         62
  18.5973         59
  18.6159         54
  18.6345         62
  18.6531         54
  18.6716         51
  18.6902         57
  18.7088         57
  18.7274         66
  18.7459         57
  18.7645         63
  18.7831         63
  18.8017         70
  18.8202         67
  18.8388         63
  18.8574         55
  18.8760         68
  18.8945         59
  18.9131         60
  18.9317         53
  18.9503         65
  18.9689         50
  18.9874         60
  19.0060         48
  19.0246         65
  19.0432         60
  19.0617         49
  19.0803         58
  19.0989         60
  19.1175         41
  19.1360         60
  19.1546         72
  19.1732         63
  19.1918         66
  19.2103         66
  19.2289         63
  19.2475         53
  19.2661         57
  19.2846         64
  19.3032         71
  19.3218         65
  19.3404         60
  19.3589         64
  19.3775         61
  19.3961         75
  19.4147         62
  19.4332         75
  19.4518         63
  19.4704         65
  19.4890         72
  19.5075         61
  19.5261         67
  19.5447         62
  19.5633         62
  19.5818         59
  19.6004         56
  19.6190         75
  19.6376         60
  19.6561         66
  19.6747         63
  19.6933         62
  19.7119         59
  19.7305         52
  19.7490         62
  19.7676         67
  19.7862         71
  19.8048         56
  19.8233         53
  19.8419         55
  19.8605         67
  19.8791         73
  19.8976         62
  19.9162         69
  19.9348         73
  19.9534         75
  19.9719         71
  19.9905         70
  20.0091         54
  20.0277         68
  20.0462         58
  20.0648         60
  20.0834         58
  20.1020         58
  20.1205         59
  20.1391         51
  20.1577         58
  20.1763         75
  20.1948         65
  20.2134         65
  20.2320         71
  20.2506         62
  20.2691         55
  20.2877         66
  20.3063         57
  20.3249         65
  20.3434         55
  20.3620         62
  20.3806         60
  20.3992         77
  20.4177         65
  20.4363         66
  20.4549         70
  20.4735         72
