; (content of file Y:\Sam\Apurva-07-20-2022\puck4\ML_20220718_10_SJD_0_LaB6-2min.raw)
_FILEVERSION = 3
_SAMPLE = ML_20220718_10_SJD_0_LaB6-2min
_+SAMPLE = 
_SITE = USA
_USER = Administrator
_GONIOMETER_CODE = 20
; Goniometer : D8 theta/2theta, stage : Unknown
_ATTACHMENTS_CODE = 0
_GONIOMETER_RADIUS = 200.5
_FIXED_DIVSLIT = 0.6
_FIXED_SAMPLESLIT = 0
_SOLLER_SLITS = 2
_FIXED_DETSLIT = 9.55
_MONOCHROMATOR = 0
; Incident beam monochromator : None
_SOLLER_SLITS_2 = N
_THIN_FILM = N
_BETA_FILTER = Y
_FIXED_ANTISLIT = 5.89
_ANALYZER_CODE = 0
; Received beam analyzer : None
_DATEMEASURED = "26-Jul-2022 10:01:26"
_WL_UNIT = A
_WL1 = 1.5406
_WL2 = 1.54439
_WL3 = 1.39222
_WLRATIO = 0.5
_ANODE = Cu
_V4_INF_CREATOR = XRDWizard
_V4_INF_CREATOR_VERSION = V2.9.0.22
_V4_INF_WIZARD_VERSION = V2.9.0.22
_V4_INF_WIZARD_ADDINS = V2.9.0.22
_V4_INF_WIZARD_DOCTYPE = XRD
_V4_INF_OSUSER = McQueenLab
_V4_INF_USER = Administrator
_V4_INF_SITE = USA
_V4_INF_SAMPLEID = ML_20220718_10_SJD_0_LaB6-2min

; Data for range 1
_DRIVE = COUPLED
_STEPTIME = 5.64
_STEPSIZE = 0.0185756
_STEPMODE = C
_START = 5
_THETA = 2.5
_2THETA = 5
_KHI = 0
_PHI = 0
_X = 0
_Y = 0
_Z = 0
_DETECTOR = 5
; Detector type : Unknown
_DETECTORSLIT = unkn
_AUX1 = 0
_AUX2 = 0
_AUX3 = 0
_TIMESTARTED = 15
_TEMP_RATE = -1
_TEMP_DELAY = -1
_KV = 40
_MA = 40
_RANGE_WL = 1.5406
_3DPLANE = 0
_V4_ADDITIONALDETECTOR = 257
_V4_PSD2THETA = 3.4232
_V4_PSDCHANNEL1 = 0
_V4_PSDAPERTURE = 12.68
_V4_PSDTYPE = 5
_V4_PSDFIXED = 0
_V4_COUNTERS_MASK = 4096
_V4_DRIVES_MASK = 0
_V4_ENCODERS_MASK = 0
_2THETACOUNTS = 1
; 2THETA  PSD
   5.0000        123
   5.0186        125
   5.0372        123
   5.0557        105
   5.0743        101
   5.0929        111
   5.1115        140
   5.1300        131
   5.1486        127
   5.1672        111
   5.1858        107
   5.2043        138
   5.2229        135
   5.2415        133
   5.2601        110
   5.2786        115
   5.2972        126
   5.3158        118
   5.3344         95
   5.3529        124
   5.3715        108
   5.3901        123
   5.4087        133
   5.4272        146
   5.4458        117
   5.4644        136
   5.4830        110
   5.5015        133
   5.5201        117
   5.5387        121
   5.5573        134
   5.5758        107
   5.5944        103
   5.6130        113
   5.6316        115
   5.6501        113
   5.6687        123
   5.6873        113
   5.7059        104
   5.7244        131
   5.7430        103
   5.7616        132
   5.7802         90
   5.7988        106
   5.8173        117
   5.8359        125
   5.8545        103
   5.8731        112
   5.8916        103
   5.9102        113
   5.9288         97
   5.9474        112
   5.9659        109
   5.9845         91
   6.0031         96
   6.0217         87
   6.0402        107
   6.0588         86
   6.0774         88
   6.0960         94
   6.1145        102
   6.1331         82
   6.1517        114
   6.1703         86
   6.1888         94
   6.2074         93
   6.2260        102
   6.2446         98
   6.2631         93
   6.2817         92
   6.3003         83
   6.3189        101
   6.3374         94
   6.3560         84
   6.3746         80
   6.3932        106
   6.4117         96
   6.4303         98
   6.4489         82
   6.4675         92
   6.4860         81
   6.5046         89
   6.5232         67
   6.5418         91
   6.5604         74
   6.5789         98
   6.5975         77
   6.6161         93
   6.6347         86
   6.6532         90
   6.6718         78
   6.6904         85
   6.7090         74
   6.7275         91
   6.7461         90
   6.7647         89
   6.7833         85
   6.8018         70
   6.8204         59
   6.8390         84
   6.8576         86
   6.8761         83
   6.8947         97
   6.9133         98
   6.9319         80
   6.9504         82
   6.9690         79
   6.9876         85
   7.0062         79
   7.0247         76
   7.0433         80
   7.0619         83
   7.0805         93
   7.0990         86
   7.1176         82
   7.1362         80
   7.1548         92
   7.1733         73
   7.1919         78
   7.2105         88
   7.2291         95
   7.2476         89
   7.2662         96
   7.2848         95
   7.3034         87
   7.3220         91
   7.3405         80
   7.3591         80
   7.3777         74
   7.3963         82
   7.4148         78
   7.4334         91
   7.4520         76
   7.4706         66
   7.4891         96
   7.5077        103
   7.5263         81
   7.5449         93
   7.5634         78
   7.5820         85
   7.6006         75
   7.6192         90
   7.6377         75
   7.6563         69
   7.6749         97
   7.6935         95
   7.7120         78
   7.7306         85
   7.7492         93
   7.7678         86
   7.7863        105
   7.8049        100
   7.8235        111
   7.8421         91
   7.8606         93
   7.8792         84
   7.8978         92
   7.9164         95
   7.9349         94
   7.9535         97
   7.9721         89
   7.9907        114
   8.0092         83
   8.0278         82
   8.0464        116
   8.0650         95
   8.0835         99
   8.1021         87
   8.1207         87
   8.1393         95
   8.1579        100
   8.1764         95
   8.1950        100
   8.2136        111
   8.2322         94
   8.2507         95
   8.2693         98
   8.2879         88
   8.3065        100
   8.3250        115
   8.3436         91
   8.3622         92
   8.3808        101
   8.3993         84
   8.4179        108
   8.4365        103
   8.4551         91
   8.4736        103
   8.4922         95
   8.5108         87
   8.5294        110
   8.5479         84
   8.5665        100
   8.5851         76
   8.6037        105
   8.6222        115
   8.6408        123
   8.6594         90
   8.6780        101
   8.6965        101
   8.7151        109
   8.7337         95
   8.7523        101
   8.7708        105
   8.7894        114
   8.8080        105
   8.8266        113
   8.8451         99
   8.8637        108
   8.8823         91
   8.9009        114
   8.9195         97
   8.9380         89
   8.9566        110
   8.9752        109
   8.9938        116
   9.0123        100
   9.0309         95
   9.0495        116
   9.0681        116
   9.0866        103
   9.1052         98
   9.1238        102
   9.1424        114
   9.1609        105
   9.1795         99
   9.1981        107
   9.2167        112
   9.2352        108
   9.2538        118
   9.2724         96
   9.2910         88
   9.3095        101
   9.3281         98
   9.3467        123
   9.3653        112
   9.3838        103
   9.4024        104
   9.4210        103
   9.4396        108
   9.4581        104
   9.4767        121
   9.4953        107
   9.5139        122
   9.5324        107
   9.5510        115
   9.5696        107
   9.5882         93
   9.6067         96
   9.6253        127
   9.6439         98
   9.6625        112
   9.6811        105
   9.6996         99
   9.7182        105
   9.7368        121
   9.7554        109
   9.7739        111
   9.7925         99
   9.8111        124
   9.8297        123
   9.8482        106
   9.8668         97
   9.8854        106
   9.9040        129
   9.9225        119
   9.9411        133
   9.9597        107
   9.9783        116
   9.9968        123
  10.0154        103
  10.0340        132
  10.0526        127
  10.0711        113
  10.0897        112
  10.1083        113
  10.1269        147
  10.1454        125
  10.1640        110
  10.1826        122
  10.2012        114
  10.2197        130
  10.2383        120
  10.2569        126
  10.2755        123
  10.2940        109
  10.3126        143
  10.3312        110
  10.3498        122
  10.3683        130
  10.3869        119
  10.4055        144
  10.4241        123
  10.4427        114
  10.4612        135
  10.4798        128
  10.4984        122
  10.5170        142
  10.5355        106
  10.5541        119
  10.5727        113
  10.5913        119
  10.6098        117
  10.6284        119
  10.6470        124
  10.6656        129
  10.6841        114
  10.7027        115
  10.7213        132
  10.7399        134
  10.7584        118
  10.7770        108
  10.7956        128
  10.8142        127
  10.8327        137
  10.8513        119
  10.8699        148
  10.8885        117
  10.9070        121
  10.9256        111
  10.9442        104
  10.9628        120
  10.9813         99
  10.9999        124
  11.0185        132
  11.0371        110
  11.0556        111
  11.0742        112
  11.0928        122
  11.1114        108
  11.1299        122
  11.1485        121
  11.1671        111
  11.1857        121
  11.2043        101
  11.2228        131
  11.2414        117
  11.2600        126
  11.2786        114
  11.2971        105
  11.3157        106
  11.3343        115
  11.3529        108
  11.3714        126
  11.3900        116
  11.4086        120
  11.4272        129
  11.4457        114
  11.4643        119
  11.4829        119
  11.5015        135
  11.5200        101
  11.5386        131
  11.5572        124
  11.5758        115
  11.5943        138
  11.6129        117
  11.6315        117
  11.6501        114
  11.6686        110
  11.6872        110
  11.7058        105
  11.7244        123
  11.7429        119
  11.7615        111
  11.7801        117
  11.7987         98
  11.8172        111
  11.8358         93
  11.8544        110
  11.8730        135
  11.8915        118
  11.9101        129
  11.9287        115
  11.9473        120
  11.9659        104
  11.9844        132
  12.0030        131
  12.0216        118
  12.0402         98
  12.0587        129
  12.0773        110
  12.0959        102
  12.1145        107
  12.1330         86
  12.1516        110
  12.1702        110
  12.1888        118
  12.2073        106
  12.2259        114
  12.2445         94
  12.2631        100
  12.2816        119
  12.3002         99
  12.3188        121
  12.3374        122
  12.3559        113
  12.3745        110
  12.3931        100
  12.4117        113
  12.4302         98
  12.4488        119
  12.4674        108
  12.4860        121
  12.5045        121
  12.5231        114
  12.5417        109
  12.5603         96
  12.5788        101
  12.5974        103
  12.6160        104
  12.6346        112
  12.6531        108
  12.6717        100
  12.6903        114
  12.7089        101
  12.7274         98
  12.7460        104
  12.7646        107
  12.7832        104
  12.8018         97
  12.8203        108
  12.8389         78
  12.8575        102
  12.8761        117
  12.8946         97
  12.9132        103
  12.9318        100
  12.9504        100
  12.9689        110
  12.9875         93
  13.0061         93
  13.0247        100
  13.0432        109
  13.0618        108
  13.0804        101
  13.0990        114
  13.1175        104
  13.1361        102
  13.1547        118
  13.1733        106
  13.1918        112
  13.2104         94
  13.2290        114
  13.2476         97
  13.2661         98
  13.2847        104
  13.3033        101
  13.3219         86
  13.3404         90
  13.3590         95
  13.3776         94
  13.3962        118
  13.4147         90
  13.4333         93
  13.4519         91
  13.4705        116
  13.4890         73
  13.5076         96
  13.5262         73
  13.5448         91
  13.5634         94
  13.5819         95
  13.6005        109
  13.6191        106
  13.6377         88
  13.6562         97
  13.6748         97
  13.6934         98
  13.7120         94
  13.7305         86
  13.7491        109
  13.7677         80
  13.7863         98
  13.8048         92
  13.8234        108
  13.8420         85
  13.8606         97
  13.8791         97
  13.8977        102
  13.9163         94
  13.9349        100
  13.9534         79
  13.9720         90
  13.9906         71
  14.0092         96
  14.0277         86
  14.0463         88
  14.0649         94
  14.0835         72
  14.1020         90
  14.1206         86
  14.1392        109
  14.1578         82
  14.1763         82
  14.1949        102
  14.2135         87
  14.2321         90
  14.2506        107
  14.2692         90
  14.2878         97
  14.3064         79
  14.3250         78
  14.3435        100
  14.3621         86
  14.3807         86
  14.3993         83
  14.4178         91
  14.4364         84
  14.4550         81
  14.4736         80
  14.4921        114
  14.5107        100
  14.5293         99
  14.5479         71
  14.5664         71
  14.5850        101
  14.6036         92
  14.6222         83
  14.6407         87
  14.6593         88
  14.6779         76
  14.6965         88
  14.7150         90
  14.7336         87
  14.7522         75
  14.7708         80
  14.7893         87
  14.8079         92
  14.8265        100
  14.8451         91
  14.8636         75
  14.8822         80
  14.9008         93
  14.9194         77
  14.9379         80
  14.9565         78
  14.9751         98
  14.9937         88
  15.0122         66
  15.0308         91
  15.0494         74
  15.0680         79
  15.0866         81
  15.1051         78
  15.1237         69
  15.1423         87
  15.1609         82
  15.1794         83
  15.1980         91
  15.2166         79
  15.2352         98
  15.2537         93
  15.2723         71
  15.2909         80
  15.3095         65
  15.3280         77
  15.3466         65
  15.3652         84
  15.3838         64
  15.4023         97
  15.4209         84
  15.4395         82
  15.4581         89
  15.4766         89
  15.4952         86
  15.5138         84
  15.5324         86
  15.5509         79
  15.5695         88
  15.5881         70
  15.6067         85
  15.6252         94
  15.6438         77
  15.6624         78
  15.6810         90
  15.6995         88
  15.7181         94
  15.7367         68
  15.7553         69
  15.7738         89
  15.7924         53
  15.8110         79
  15.8296         72
  15.8482         88
  15.8667         87
  15.8853         98
  15.9039         88
  15.9225         74
  15.9410         91
  15.9596         79
  15.9782         86
  15.9968         73
  16.0153         79
  16.0339         92
  16.0525         73
  16.0711         72
  16.0896         86
  16.1082         93
  16.1268         88
  16.1454         93
  16.1639         83
  16.1825         84
  16.2011         84
  16.2197        107
  16.2382         71
  16.2568         80
  16.2754         86
  16.2940         80
  16.3125         82
  16.3311         67
  16.3497         85
  16.3683         85
  16.3868         93
  16.4054         73
  16.4240         72
  16.4426         71
  16.4611         68
  16.4797         85
  16.4983         81
  16.5169         85
  16.5354         95
  16.5540         73
  16.5726         69
  16.5912         88
  16.6097         78
  16.6283         88
  16.6469         87
  16.6655         75
  16.6841         70
  16.7026         80
  16.7212         84
  16.7398         91
  16.7584         88
  16.7769         88
  16.7955         75
  16.8141         71
  16.8327         80
  16.8512         76
  16.8698         61
  16.8884         64
  16.9070         85
  16.9255         81
  16.9441         77
  16.9627         74
  16.9813         63
  16.9998         77
  17.0184         63
  17.0370         71
  17.0556         83
  17.0741         82
  17.0927         88
  17.1113         80
  17.1299        102
  17.1484         82
  17.1670         86
  17.1856         92
  17.2042         92
  17.2227         84
  17.2413         85
  17.2599         73
  17.2785         90
  17.2970         72
  17.3156         65
  17.3342         88
  17.3528         74
  17.3713         89
  17.3899         86
  17.4085         77
  17.4271         96
  17.4457         89
  17.4642         81
  17.4828         74
  17.5014         88
  17.5200         86
  17.5385         75
  17.5571         78
  17.5757         83
  17.5943         81
  17.6128         96
  17.6314         73
  17.6500         99
  17.6686         83
  17.6871         82
  17.7057         85
  17.7243         87
  17.7429         64
  17.7614         66
  17.7800         83
  17.7986         75
  17.8172         71
  17.8357         84
  17.8543         90
  17.8729         76
  17.8915         85
  17.9100         80
  17.9286         82
  17.9472         82
  17.9658         83
  17.9843         77
  18.0029         78
  18.0215         77
  18.0401         76
  18.0586         83
  18.0772         86
  18.0958         86
  18.1144         74
  18.1329         75
  18.1515         83
  18.1701         82
  18.1887         81
  18.2073         54
  18.2258         90
  18.2444         78
  18.2630        102
  18.2816         66
  18.3001         88
  18.3187         87
  18.3373         85
  18.3559         76
  18.3744         67
  18.3930         86
  18.4116         95
  18.4302         83
  18.4487         78
  18.4673         87
  18.4859         87
  18.5045         90
  18.5230         88
  18.5416         75
  18.5602         93
  18.5788         75
  18.5973         91
  18.6159         95
  18.6345         80
  18.6531         78
  18.6716         74
  18.6902         93
  18.7088         76
  18.7274         87
  18.7459         76
  18.7645         90
  18.7831         73
  18.8017         78
  18.8202         74
  18.8388        101
  18.8574         92
  18.8760         88
  18.8945         76
  18.9131         92
  18.9317        108
  18.9503         97
  18.9689         90
  18.9874         87
  19.0060         78
  19.0246         95
  19.0432         95
  19.0617         76
  19.0803         90
  19.0989         79
  19.1175         88
  19.1360         93
  19.1546         85
  19.1732         83
  19.1918         74
  19.2103         77
  19.2289         75
  19.2475         84
  19.2661         84
  19.2846         96
  19.3032        106
  19.3218         89
  19.3404         74
  19.3589         90
  19.3775         94
  19.3961         85
  19.4147         89
  19.4332         82
  19.4518         89
  19.4704         87
  19.4890         83
  19.5075         84
  19.5261         68
  19.5447         78
  19.5633        100
  19.5818         82
  19.6004         95
  19.6190         74
  19.6376         85
  19.6561         87
  19.6747         85
  19.6933        109
  19.7119         85
  19.7305         87
  19.7490         92
  19.7676         97
  19.7862         81
  19.8048         94
  19.8233         79
  19.8419         98
  19.8605         86
  19.8791         98
  19.8976         85
  19.9162         81
  19.9348         89
  19.9534         93
  19.9719         76
  19.9905        104
  20.0091         85
  20.0277         98
  20.0462         91
  20.0648         78
  20.0834         96
  20.1020         84
  20.1205         87
  20.1391         75
  20.1577        102
  20.1763        103
  20.1948         89
  20.2134         84
  20.2320        101
  20.2506         96
  20.2691         87
  20.2877         97
  20.3063         85
  20.3249         93
  20.3434         75
  20.3620        102
  20.3806         87
  20.3992        104
  20.4177         91
  20.4363        110
  20.4549         94
  20.4735         94
