; (content of file Y:\Sam\Apurva-07-20-2022\puck2\ML_20220720_26_SJD_0_LaB6-1min.raw)
_FILEVERSION = 3
_SAMPLE = ML_20220720_26_SJD_0_LaB6-1min
_+SAMPLE = 
_SITE = USA
_USER = Administrator
_GONIOMETER_CODE = 20
; Goniometer : D8 theta/2theta, stage : Unknown
_ATTACHMENTS_CODE = 0
_GONIOMETER_RADIUS = 200.5
_FIXED_DIVSLIT = 0.6
_FIXED_SAMPLESLIT = 0
_SOLLER_SLITS = 2
_FIXED_DETSLIT = 9.55
_MONOCHROMATOR = 0
; Incident beam monochromator : None
_SOLLER_SLITS_2 = N
_THIN_FILM = N
_BETA_FILTER = Y
_FIXED_ANTISLIT = 5.89
_ANALYZER_CODE = 0
; Received beam analyzer : None
_DATEMEASURED = "25-Jul-2022 18:34:54"
_WL_UNIT = A
_WL1 = 1.5406
_WL2 = 1.54439
_WL3 = 1.39222
_WLRATIO = 0.5
_ANODE = Cu
_V4_INF_CREATOR = XRDWizard
_V4_INF_CREATOR_VERSION = V2.9.0.22
_V4_INF_WIZARD_VERSION = V2.9.0.22
_V4_INF_WIZARD_ADDINS = V2.9.0.22
_V4_INF_WIZARD_DOCTYPE = XRD
_V4_INF_OSUSER = McQueenLab
_V4_INF_USER = Administrator
_V4_INF_SITE = USA
_V4_INF_SAMPLEID = ML_20220720_26_SJD_0_LaB6-1min

; Data for range 1
_DRIVE = COUPLED
_STEPTIME = 4.23
_STEPSIZE = 0.0185756
_STEPMODE = C
_START = 5
_THETA = 2.5
_2THETA = 5
_KHI = 0
_PHI = 0
_X = 0
_Y = 0
_Z = 0
_DETECTOR = 5
; Detector type : Unknown
_DETECTORSLIT = unkn
_AUX1 = 0
_AUX2 = 0
_AUX3 = 0
_TIMESTARTED = 15
_TEMP_RATE = -1
_TEMP_DELAY = -1
_KV = 40
_MA = 40
_RANGE_WL = 1.5406
_3DPLANE = 0
_V4_ADDITIONALDETECTOR = 257
_V4_PSD2THETA = 3.431
_V4_PSDCHANNEL1 = 0
_V4_PSDAPERTURE = 12.68
_V4_PSDTYPE = 5
_V4_PSDFIXED = 0
_V4_COUNTERS_MASK = 4096
_V4_DRIVES_MASK = 0
_V4_ENCODERS_MASK = 0
_2THETACOUNTS = 1
; 2THETA  PSD
   5.0000         95
   5.0186         89
   5.0372         84
   5.0557         95
   5.0743        103
   5.0929         96
   5.1115        101
   5.1300        101
   5.1486        105
   5.1672         89
   5.1858         88
   5.2043         98
   5.2229         89
   5.2415         81
   5.2601        100
   5.2786        105
   5.2972         96
   5.3158         81
   5.3344         88
   5.3529         76
   5.3715         77
   5.3901         88
   5.4087         88
   5.4272         83
   5.4458         85
   5.4644         87
   5.4830         65
   5.5015         77
   5.5201         86
   5.5387         94
   5.5573         76
   5.5758         81
   5.5944         73
   5.6130         85
   5.6316         79
   5.6501         68
   5.6687         70
   5.6873         77
   5.7059         76
   5.7244         58
   5.7430         81
   5.7616         83
   5.7802         78
   5.7988         66
   5.8173         74
   5.8359         82
   5.8545         76
   5.8731         87
   5.8916         58
   5.9102         72
   5.9288         92
   5.9474         72
   5.9659         83
   5.9845         78
   6.0031         74
   6.0217         74
   6.0402         80
   6.0588         85
   6.0774         74
   6.0960         66
   6.1145         59
   6.1331         68
   6.1517         65
   6.1703         76
   6.1888         85
   6.2074         75
   6.2260         68
   6.2446         76
   6.2631         77
   6.2817         70
   6.3003         72
   6.3189         58
   6.3374         57
   6.3560         83
   6.3746         58
   6.3932         59
   6.4117         70
   6.4303         81
   6.4489         62
   6.4675         69
   6.4860         79
   6.5046         62
   6.5232         62
   6.5418         60
   6.5604         74
   6.5789         56
   6.5975         63
   6.6161         71
   6.6347         76
   6.6532         65
   6.6718         65
   6.6904         64
   6.7090         68
   6.7275         64
   6.7461         71
   6.7647         65
   6.7833         54
   6.8018         55
   6.8204         66
   6.8390         70
   6.8576         74
   6.8761         49
   6.8947         66
   6.9133         69
   6.9319         55
   6.9504         59
   6.9690         58
   6.9876         53
   7.0062         59
   7.0247         53
   7.0433         52
   7.0619         62
   7.0805         51
   7.0990         45
   7.1176         62
   7.1362         66
   7.1548         71
   7.1733         49
   7.1919         61
   7.2105         50
   7.2291         68
   7.2476         54
   7.2662         59
   7.2848         56
   7.3034         61
   7.3220         44
   7.3405         63
   7.3591         54
   7.3777         54
   7.3963         44
   7.4148         56
   7.4334         66
   7.4520         78
   7.4706         59
   7.4891         65
   7.5077         67
   7.5263         62
   7.5449         61
   7.5634         42
   7.5820         55
   7.6006         67
   7.6192         66
   7.6377         79
   7.6563         68
   7.6749         60
   7.6935         72
   7.7120         64
   7.7306         50
   7.7492         73
   7.7678         45
   7.7863         65
   7.8049         74
   7.8235         78
   7.8421         64
   7.8606         79
   7.8792         63
   7.8978         60
   7.9164         62
   7.9349         55
   7.9535         77
   7.9721         69
   7.9907         72
   8.0092         64
   8.0278         75
   8.0464         79
   8.0650         64
   8.0835         80
   8.1021         78
   8.1207         75
   8.1393         70
   8.1579         77
   8.1764         73
   8.1950         64
   8.2136         74
   8.2322         70
   8.2507         70
   8.2693         67
   8.2879         80
   8.3065         67
   8.3250         87
   8.3436         75
   8.3622         82
   8.3808         72
   8.3993         77
   8.4179         55
   8.4365         66
   8.4551         75
   8.4736         62
   8.4922         69
   8.5108         63
   8.5294         90
   8.5479         73
   8.5665         64
   8.5851         67
   8.6037         71
   8.6222         63
   8.6408         62
   8.6594         60
   8.6780         73
   8.6965         79
   8.7151         79
   8.7337         84
   8.7523         71
   8.7708         81
   8.7894         69
   8.8080         72
   8.8266         81
   8.8451         94
   8.8637         85
   8.8823         58
   8.9009         84
   8.9195         84
   8.9380         65
   8.9566         65
   8.9752         70
   8.9938         82
   9.0123         62
   9.0309         78
   9.0495         74
   9.0681         95
   9.0866         81
   9.1052         62
   9.1238         88
   9.1424         73
   9.1609         98
   9.1795         72
   9.1981         70
   9.2167         86
   9.2352         77
   9.2538         74
   9.2724         76
   9.2910         92
   9.3095         77
   9.3281         73
   9.3467         83
   9.3653         95
   9.3838         84
   9.4024         86
   9.4210         88
   9.4396         82
   9.4581        106
   9.4767         76
   9.4953         89
   9.5139         83
   9.5324         73
   9.5510         82
   9.5696         79
   9.5882         70
   9.6067         66
   9.6253         72
   9.6439         76
   9.6625         85
   9.6811         80
   9.6996         76
   9.7182         70
   9.7368         90
   9.7554         84
   9.7739         82
   9.7925         87
   9.8111         90
   9.8297         86
   9.8482         84
   9.8668         86
   9.8854         73
   9.9040         81
   9.9225         84
   9.9411         96
   9.9597        100
   9.9783         92
   9.9968         86
  10.0154         90
  10.0340         83
  10.0526         69
  10.0711         85
  10.0897         84
  10.1083         88
  10.1269        109
  10.1454         71
  10.1640        100
  10.1826         96
  10.2012         89
  10.2197         98
  10.2383        106
  10.2569         73
  10.2755        110
  10.2940         97
  10.3126         87
  10.3312         82
  10.3498         86
  10.3683         84
  10.3869         90
  10.4055         96
  10.4241         80
  10.4427         77
  10.4612         81
  10.4798         91
  10.4984        101
  10.5170         82
  10.5355         76
  10.5541         88
  10.5727         78
  10.5913         78
  10.6098         94
  10.6284        102
  10.6470         65
  10.6656         75
  10.6841         81
  10.7027         94
  10.7213        104
  10.7399        116
  10.7584         78
  10.7770         86
  10.7956        103
  10.8142         80
  10.8327         62
  10.8513         95
  10.8699         92
  10.8885         99
  10.9070         97
  10.9256        105
  10.9442        102
  10.9628         84
  10.9813         95
  10.9999         91
  11.0185         85
  11.0371         84
  11.0556        113
  11.0742        109
  11.0928         84
  11.1114         75
  11.1299         73
  11.1485         73
  11.1671         86
  11.1857         91
  11.2043         83
  11.2228         89
  11.2414         89
  11.2600         80
  11.2786         77
  11.2971         88
  11.3157         88
  11.3343         78
  11.3529         93
  11.3714         84
  11.3900         76
  11.4086         92
  11.4272         82
  11.4457         89
  11.4643         78
  11.4829         89
  11.5015         97
  11.5200         65
  11.5386         92
  11.5572         83
  11.5758         82
  11.5943         79
  11.6129         71
  11.6315         86
  11.6501         79
  11.6686         94
  11.6872         87
  11.7058        101
  11.7244         92
  11.7429         99
  11.7615         92
  11.7801         72
  11.7987        101
  11.8172         86
  11.8358         82
  11.8544        103
  11.8730         82
  11.8915         99
  11.9101         84
  11.9287         74
  11.9473         84
  11.9659         79
  11.9844         89
  12.0030         88
  12.0216         77
  12.0402         86
  12.0587        100
  12.0773         83
  12.0959         68
  12.1145         81
  12.1330         70
  12.1516         74
  12.1702         87
  12.1888         94
  12.2073         82
  12.2259         96
  12.2445         97
  12.2631         65
  12.2816         75
  12.3002         76
  12.3188         93
  12.3374         84
  12.3559         90
  12.3745        101
  12.3931         88
  12.4117         80
  12.4302         73
  12.4488         73
  12.4674         89
  12.4860         94
  12.5045         81
  12.5231         89
  12.5417         90
  12.5603         75
  12.5788         67
  12.5974         79
  12.6160         54
  12.6346         65
  12.6531         77
  12.6717         65
  12.6903         77
  12.7089         66
  12.7274         79
  12.7460         77
  12.7646         93
  12.7832         97
  12.8018         76
  12.8203         79
  12.8389         77
  12.8575         81
  12.8761         84
  12.8946         86
  12.9132         71
  12.9318         79
  12.9504         78
  12.9689         64
  12.9875         78
  13.0061         70
  13.0247         74
  13.0432         69
  13.0618         63
  13.0804         77
  13.0990         71
  13.1175         81
  13.1361         75
  13.1547         71
  13.1733         81
  13.1918         76
  13.2104         74
  13.2290         60
  13.2476         84
  13.2661         77
  13.2847         72
  13.3033         77
  13.3219         72
  13.3404         85
  13.3590         68
  13.3776         68
  13.3962         86
  13.4147         66
  13.4333         63
  13.4519         49
  13.4705         80
  13.4890         67
  13.5076         54
  13.5262         68
  13.5448         62
  13.5634         59
  13.5819         68
  13.6005         73
  13.6191         63
  13.6377         69
  13.6562         66
  13.6748         47
  13.6934         58
  13.7120         69
  13.7305         61
  13.7491         69
  13.7677         63
  13.7863         60
  13.8048         54
  13.8234         59
  13.8420         63
  13.8606         65
  13.8791         80
  13.8977         59
  13.9163         53
  13.9349         74
  13.9534         63
  13.9720         70
  13.9906         67
  14.0092         72
  14.0277         67
  14.0463         75
  14.0649         78
  14.0835         67
  14.1020         61
  14.1206         54
  14.1392         68
  14.1578         71
  14.1763         68
  14.1949         48
  14.2135         80
  14.2321         66
  14.2506         59
  14.2692         66
  14.2878         76
  14.3064         59
  14.3250         69
  14.3435         52
  14.3621         59
  14.3807         63
  14.3993         58
  14.4178         59
  14.4364         48
  14.4550         43
  14.4736         65
  14.4921         65
  14.5107         66
  14.5293         63
  14.5479         61
  14.5664         62
  14.5850         57
  14.6036         68
  14.6222         70
  14.6407         65
  14.6593         63
  14.6779         55
  14.6965         77
  14.7150         80
  14.7336         63
  14.7522         64
  14.7708         57
  14.7893         61
  14.8079         51
  14.8265         60
  14.8451         54
  14.8636         53
  14.8822         50
  14.9008         55
  14.9194         58
  14.9379         58
  14.9565         68
  14.9751         67
  14.9937         64
  15.0122         63
  15.0308         53
  15.0494         73
  15.0680         55
  15.0866         53
  15.1051         64
  15.1237         69
  15.1423         64
  15.1609         59
  15.1794         69
  15.1980         44
  15.2166         67
  15.2352         57
  15.2537         55
  15.2723         69
  15.2909         53
  15.3095         58
  15.3280         58
  15.3466         63
  15.3652         55
  15.3838         62
  15.4023         57
  15.4209         63
  15.4395         51
  15.4581         77
  15.4766         58
  15.4952         62
  15.5138         70
  15.5324         59
  15.5509         60
  15.5695         49
  15.5881         76
  15.6067         66
  15.6252         69
  15.6438         54
  15.6624         65
  15.6810         60
  15.6995         59
  15.7181         67
  15.7367         67
  15.7553         62
  15.7738         66
  15.7924         56
  15.8110         56
  15.8296         61
  15.8482         75
  15.8667         68
  15.8853         64
  15.9039         76
  15.9225         59
  15.9410         60
  15.9596         69
  15.9782         68
  15.9968         71
  16.0153         68
  16.0339         54
  16.0525         57
  16.0711         57
  16.0896         59
  16.1082         79
  16.1268         63
  16.1454         70
  16.1639         64
  16.1825         66
  16.2011         67
  16.2197         69
  16.2382         53
  16.2568         49
  16.2754         69
  16.2940         54
  16.3125         60
  16.3311         59
  16.3497         57
  16.3683         58
  16.3868         57
  16.4054         54
  16.4240         55
  16.4426         64
  16.4611         60
  16.4797         51
  16.4983         70
  16.5169         65
  16.5354         72
  16.5540         62
  16.5726         59
  16.5912         52
  16.6097         60
  16.6283         58
  16.6469         61
  16.6655         61
  16.6841         58
  16.7026         63
  16.7212         59
  16.7398         76
  16.7584         60
  16.7769         57
  16.7955         55
  16.8141         54
  16.8327         38
  16.8512         64
  16.8698         58
  16.8884         61
  16.9070         77
  16.9255         46
  16.9441         65
  16.9627         52
  16.9813         68
  16.9998         45
  17.0184         56
  17.0370         68
  17.0556         64
  17.0741         55
  17.0927         71
  17.1113         69
  17.1299         55
  17.1484         64
  17.1670         60
  17.1856         52
  17.2042         53
  17.2227         59
  17.2413         57
  17.2599         59
  17.2785         49
  17.2970         62
  17.3156         48
  17.3342         69
  17.3528         57
  17.3713         63
  17.3899         62
  17.4085         63
  17.4271         64
  17.4457         52
  17.4642         55
  17.4828         65
  17.5014         52
  17.5200         58
  17.5385         61
  17.5571         68
  17.5757         65
  17.5943         61
  17.6128         70
  17.6314         52
  17.6500         66
  17.6686         75
  17.6871         75
  17.7057         66
  17.7243         55
  17.7429         59
  17.7614         54
  17.7800         67
  17.7986         60
  17.8172         71
  17.8357         54
  17.8543         54
  17.8729         58
  17.8915         55
  17.9100         52
  17.9286         70
  17.9472         61
  17.9658         57
  17.9843         63
  18.0029         56
  18.0215         69
  18.0401         56
  18.0586         63
  18.0772         43
  18.0958         76
  18.1144         56
  18.1329         61
  18.1515         69
  18.1701         56
  18.1887         46
  18.2073         74
  18.2258         75
  18.2444         68
  18.2630         72
  18.2816         60
  18.3001         67
  18.3187         60
  18.3373         68
  18.3559         55
  18.3744         55
  18.3930         49
  18.4116         58
  18.4302         66
  18.4487         56
  18.4673         75
  18.4859         63
  18.5045         77
  18.5230         60
  18.5416         69
  18.5602         54
  18.5788         63
  18.5973         55
  18.6159         61
  18.6345         55
  18.6531         61
  18.6716         65
  18.6902         57
  18.7088         60
  18.7274         60
  18.7459         81
  18.7645         58
  18.7831         48
  18.8017         71
  18.8202         73
  18.8388         59
  18.8574         72
  18.8760         62
  18.8945         49
  18.9131         69
  18.9317         71
  18.9503         64
  18.9689         67
  18.9874         57
  19.0060         65
  19.0246         67
  19.0432         64
  19.0617         67
  19.0803         58
  19.0989         61
  19.1175         53
  19.1360         56
  19.1546         55
  19.1732         65
  19.1918         63
  19.2103         66
  19.2289         67
  19.2475         67
  19.2661         53
  19.2846         53
  19.3032         63
  19.3218         60
  19.3404         48
  19.3589         70
  19.3775         68
  19.3961         68
  19.4147         70
  19.4332         51
  19.4518         53
  19.4704         63
  19.4890         59
  19.5075         66
  19.5261         68
  19.5447         50
  19.5633         72
  19.5818         60
  19.6004         65
  19.6190         68
  19.6376         59
  19.6561         62
  19.6747         63
  19.6933         53
  19.7119         81
  19.7305         69
  19.7490         57
  19.7676         52
  19.7862         61
  19.8048         72
  19.8233         62
  19.8419         64
  19.8605         46
  19.8791         72
  19.8976         62
  19.9162         62
  19.9348         65
  19.9534         64
  19.9719         54
  19.9905         82
  20.0091         72
  20.0277         61
  20.0462         66
  20.0648         55
  20.0834         73
  20.1020         63
  20.1205         72
  20.1391         66
  20.1577         81
  20.1763         57
  20.1948         68
  20.2134         61
  20.2320         66
  20.2506         85
  20.2691         62
  20.2877         65
  20.3063         75
  20.3249         63
  20.3434         86
  20.3620         51
  20.3806         78
  20.3992         56
  20.4177         83
  20.4363         64
  20.4549         72
  20.4735         71
