;,2THETA,
5.0000,120
5.0186,126
5.0372,124
5.0557,113
5.0743,128
5.0929,135
5.1115,126
5.1300,128
5.1486,128
5.1672,132
5.1858,127
5.2043,121
5.2229,129
5.2415,102
5.2601,120
5.2786,108
5.2972,125
5.3158,133
5.3344,112
5.3529,123
5.3715,123
5.3901,132
5.4087,104
5.4272,100
5.4458,114
5.4644,98
5.4830,117
5.5015,120
5.5201,102
5.5387,98
5.5573,105
5.5758,113
5.5944,105
5.6130,94
5.6316,104
5.6501,91
5.6687,101
5.6873,90
5.7059,110
5.7244,87
5.7430,81
5.7616,102
5.7802,108
5.7988,104
5.8173,109
5.8359,116
5.8545,108
5.8731,89
5.8916,117
5.9102,112
5.9288,83
5.9474,97
5.9659,88
5.9845,85
6.0031,88
6.0217,115
6.0402,97
6.0588,108
6.0774,97
6.0960,83
6.1145,94
6.1331,97
6.1517,88
6.1703,90
6.1888,92
6.2074,81
6.2260,100
6.2446,93
6.2631,86
6.2817,106
6.3003,94
6.3189,96
6.3374,92
6.3560,99
6.3746,94
6.3932,99
6.4117,89
6.4303,90
6.4489,82
6.4675,86
6.4860,81
6.5046,94
6.5232,86
6.5418,91
6.5604,90
6.5789,76
6.5975,89
6.6161,82
6.6347,89
6.6532,92
6.6718,93
6.6904,91
6.7090,76
6.7275,88
6.7461,88
6.7647,93
6.7833,70
6.8018,74
6.8204,70
6.8390,91
6.8576,84
6.8761,85
6.8947,77
6.9133,87
6.9319,67
6.9504,78
6.9690,92
6.9876,72
7.0062,96
7.0247,76
7.0433,75
7.0619,87
7.0805,84
7.0990,82
7.1176,88
7.1362,67
7.1548,83
7.1733,62
7.1919,75
7.2105,60
7.2291,71
7.2476,99
7.2662,76
7.2848,73
7.3034,85
7.3220,77
7.3405,70
7.3591,66
7.3777,67
7.3963,78
7.4148,87
7.4334,78
7.4520,69
7.4706,77
7.4891,84
7.5077,81
7.5263,80
7.5449,71
7.5634,87
7.5820,72
7.6006,100
7.6192,98
7.6377,109
7.6563,84
7.6749,100
7.6935,84
7.7120,92
7.7306,104
7.7492,88
7.7678,87
7.7863,63
7.8049,93
7.8235,84
7.8421,91
7.8606,70
7.8792,103
7.8978,90
7.9164,90
7.9349,88
7.9535,122
7.9721,93
7.9907,87
8.0092,89
8.0278,120
8.0464,97
8.0650,81
8.0835,94
8.1021,99
8.1207,89
8.1393,86
8.1579,94
8.1764,74
8.1950,94
8.2136,100
8.2322,123
8.2507,83
8.2693,73
8.2879,88
8.3065,86
8.3250,96
8.3436,87
8.3622,102
8.3808,91
8.3993,95
8.4179,95
8.4365,100
8.4551,108
8.4736,95
8.4922,86
8.5108,95
8.5294,100
8.5479,111
8.5665,113
8.5851,97
8.6037,102
8.6222,101
8.6408,106
8.6594,99
8.6780,112
8.6965,107
8.7151,93
8.7337,124
8.7523,91
8.7708,101
8.7894,83
8.8080,98
8.8266,115
8.8451,107
8.8637,126
8.8823,92
8.9009,104
8.9195,119
8.9380,99
8.9566,117
8.9752,108
8.9938,95
9.0123,87
9.0309,111
9.0495,93
9.0681,111
9.0866,114
9.1052,110
9.1238,103
9.1424,102
9.1609,94
9.1795,99
9.1981,115
9.2167,98
9.2352,115
9.2538,119
9.2724,118
9.2910,94
9.3095,107
9.3281,109
9.3467,87
9.3653,112
9.3838,109
9.4024,107
9.4210,98
9.4396,103
9.4581,103
9.4767,119
9.4953,106
9.5139,106
9.5324,117
9.5510,116
9.5696,105
9.5882,116
9.6067,109
9.6253,115
9.6439,102
9.6625,111
9.6811,121
9.6996,131
9.7182,111
9.7368,115
9.7554,101
9.7739,111
9.7925,123
9.8111,109
9.8297,130
9.8482,130
9.8668,119
9.8854,137
9.9040,110
9.9225,116
9.9411,113
9.9597,140
9.9783,126
9.9968,116
10.0154,94
10.0340,141
10.0526,101
10.0711,125
10.0897,130
10.1083,125
10.1269,114
10.1454,119
10.1640,119
10.1826,104
10.2012,120
10.2197,137
10.2383,116
10.2569,103
10.2755,117
10.2940,127
10.3126,129
10.3312,120
10.3498,124
10.3683,109
10.3869,108
10.4055,119
10.4241,104
10.4427,113
10.4612,105
10.4798,122
10.4984,116
10.5170,121
10.5355,139
10.5541,103
10.5727,121
10.5913,105
10.6098,119
10.6284,124
10.6470,130
10.6656,144
10.6841,122
10.7027,126
10.7213,125
10.7399,123
10.7584,126
10.7770,116
10.7956,120
10.8142,106
10.8327,129
10.8513,130
10.8699,105
10.8885,103
10.9070,106
10.9256,119
10.9442,120
10.9628,113
10.9813,97
10.9999,130
11.0185,125
11.0371,120
11.0556,124
11.0742,101
11.0928,120
11.1114,118
11.1299,125
11.1485,113
11.1671,107
11.1857,104
11.2043,119
11.2228,120
11.2414,132
11.2600,134
11.2786,120
11.2971,135
11.3157,105
11.3343,113
11.3529,125
11.3714,122
11.3900,120
11.4086,138
11.4272,125
11.4457,114
11.4643,142
11.4829,107
11.5015,120
11.5200,89
11.5386,114
11.5572,129
11.5758,97
11.5943,125
11.6129,105
11.6315,107
11.6501,120
11.6686,116
11.6872,123
11.7058,124
11.7244,125
11.7429,110
11.7615,112
11.7801,122
11.7987,112
11.8172,119
11.8358,126
11.8544,106
11.8730,110
11.8915,107
11.9101,115
11.9287,114
11.9473,120
11.9659,120
11.9844,93
12.0030,132
12.0216,101
12.0402,105
12.0587,108
12.0773,101
12.0959,98
12.1145,116
12.1330,110
12.1516,120
12.1702,117
12.1888,109
12.2073,108
12.2259,117
12.2445,96
12.2631,105
12.2816,84
12.3002,109
12.3188,112
12.3374,90
12.3559,103
12.3745,125
12.3931,99
12.4117,103
12.4302,119
12.4488,117
12.4674,89
12.4860,122
12.5045,105
12.5231,111
12.5417,100
12.5603,127
12.5788,112
12.5974,103
12.6160,96
12.6346,105
12.6531,93
12.6717,100
12.6903,102
12.7089,96
12.7274,108
12.7460,93
12.7646,90
12.7832,98
12.8018,119
12.8203,114
12.8389,109
12.8575,99
12.8761,99
12.8946,103
12.9132,94
12.9318,93
12.9504,108
12.9689,92
12.9875,96
13.0061,94
13.0247,106
13.0432,104
13.0618,95
13.0804,93
13.0990,108
13.1175,114
13.1361,102
13.1547,90
13.1733,100
13.1918,99
13.2104,85
13.2290,112
13.2476,99
13.2661,99
13.2847,90
13.3033,89
13.3219,102
13.3404,101
13.3590,76
13.3776,96
13.3962,88
13.4147,101
13.4333,93
13.4519,114
13.4705,85
13.4890,83
13.5076,96
13.5262,90
13.5448,125
13.5634,77
13.5819,85
13.6005,100
13.6191,93
13.6377,84
13.6562,113
13.6748,106
13.6934,118
13.7120,106
13.7305,91
13.7491,84
13.7677,97
13.7863,92
13.8048,106
13.8234,97
13.8420,87
13.8606,94
13.8791,95
13.8977,90
13.9163,84
13.9349,86
13.9534,87
13.9720,94
13.9906,114
14.0092,98
14.0277,110
14.0463,95
14.0649,105
14.0835,87
14.1020,88
14.1206,85
14.1392,86
14.1578,88
14.1763,76
14.1949,94
14.2135,76
14.2321,98
14.2506,80
14.2692,90
14.2878,86
14.3064,82
14.3250,78
14.3435,99
14.3621,87
14.3807,79
14.3993,82
14.4178,88
14.4364,93
14.4550,87
14.4736,90
14.4921,96
14.5107,93
14.5293,73
14.5479,95
14.5664,95
14.5850,86
14.6036,90
14.6222,80
14.6407,87
14.6593,71
14.6779,76
14.6965,98
14.7150,97
14.7336,82
14.7522,83
14.7708,99
14.7893,80
14.8079,76
14.8265,71
14.8451,93
14.8636,84
14.8822,84
14.9008,83
14.9194,88
14.9379,92
14.9565,87
14.9751,93
14.9937,71
15.0122,89
15.0308,80
15.0494,100
15.0680,90
15.0866,80
15.1051,82
15.1237,82
15.1423,91
15.1609,73
15.1794,88
15.1980,82
15.2166,96
15.2352,72
15.2537,81
15.2723,90
15.2909,85
15.3095,84
15.3280,82
15.3466,67
15.3652,83
15.3838,79
15.4023,74
15.4209,73
15.4395,76
15.4581,72
15.4766,89
15.4952,87
15.5138,74
15.5324,96
15.5509,96
15.5695,71
15.5881,68
15.6067,76
15.6252,90
15.6438,87
15.6624,72
15.6810,89
15.6995,84
15.7181,77
15.7367,88
15.7553,92
15.7738,83
15.7924,87
15.8110,91
15.8296,74
15.8482,62
15.8667,75
15.8853,87
15.9039,67
15.9225,75
15.9410,91
15.9596,70
15.9782,85
15.9968,78
16.0153,86
16.0339,99
16.0525,83
16.0711,87
16.0896,84
16.1082,100
16.1268,79
16.1454,83
16.1639,78
16.1825,77
16.2011,94
16.2197,64
16.2382,76
16.2568,79
16.2754,90
16.2940,71
16.3125,72
16.3311,83
16.3497,87
16.3683,95
16.3868,95
16.4054,93
16.4240,85
16.4426,83
16.4611,82
16.4797,75
16.4983,84
16.5169,80
16.5354,72
16.5540,74
16.5726,87
16.5912,85
16.6097,76
16.6283,86
16.6469,75
16.6655,72
16.6841,83
16.7026,78
16.7212,68
16.7398,72
16.7584,88
16.7769,80
16.7955,55
16.8141,71
16.8327,82
16.8512,82
16.8698,72
16.8884,65
16.9070,87
16.9255,76
16.9441,76
16.9627,62
16.9813,79
16.9998,109
17.0184,88
17.0370,98
17.0556,86
17.0741,99
17.0927,78
17.1113,90
17.1299,91
17.1484,101
17.1670,97
17.1856,78
17.2042,73
17.2227,75
17.2413,85
17.2599,77
17.2785,64
17.2970,88
17.3156,82
17.3342,82
17.3528,82
17.3713,97
17.3899,96
17.4085,82
17.4271,83
17.4457,93
17.4642,67
17.4828,91
17.5014,95
17.5200,82
17.5385,81
17.5571,82
17.5757,76
17.5943,86
17.6128,71
17.6314,74
17.6500,98
17.6686,77
17.6871,83
17.7057,95
17.7243,83
17.7429,76
17.7614,91
17.7800,71
17.7986,67
17.8172,71
17.8357,79
17.8543,62
17.8729,83
17.8915,87
17.9100,63
17.9286,108
17.9472,78
17.9658,81
17.9843,83
18.0029,86
18.0215,80
18.0401,74
18.0586,70
18.0772,81
18.0958,65
18.1144,82
18.1329,75
18.1515,84
18.1701,87
18.1887,75
18.2073,91
18.2258,76
18.2444,75
18.2630,66
18.2816,76
18.3001,89
18.3187,86
18.3373,94
18.3559,93
18.3744,93
18.3930,78
18.4116,86
18.4302,76
18.4487,77
18.4673,79
18.4859,86
18.5045,82
18.5230,70
18.5416,76
18.5602,77
18.5788,78
18.5973,95
18.6159,78
18.6345,85
18.6531,72
18.6716,86
18.6902,93
18.7088,98
18.7274,77
18.7459,72
18.7645,86
18.7831,88
18.8017,81
18.8202,95
18.8388,75
18.8574,83
18.8760,81
18.8945,77
18.9131,108
18.9317,91
18.9503,80
18.9689,72
18.9874,87
19.0060,100
19.0246,79
19.0432,93
19.0617,92
19.0803,92
19.0989,75
19.1175,74
19.1360,85
19.1546,72
19.1732,93
19.1918,80
19.2103,104
19.2289,82
19.2475,85
19.2661,81
19.2846,79
19.3032,75
19.3218,97
19.3404,73
19.3589,82
19.3775,90
19.3961,88
19.4147,85
19.4332,85
19.4518,83
19.4704,84
19.4890,105
19.5075,81
19.5261,89
19.5447,81
19.5633,70
19.5818,89
19.6004,84
19.6190,79
19.6376,78
19.6561,77
19.6747,72
19.6933,83
19.7119,86
19.7305,75
19.7490,91
19.7676,76
19.7862,91
19.8048,80
19.8233,83
19.8419,70
19.8605,82
19.8791,74
19.8976,85
19.9162,94
19.9348,82
19.9534,75
19.9719,87
19.9905,96
20.0091,76
20.0277,90
20.0462,90
20.0648,97
20.0834,95
20.1020,77
20.1205,84
20.1391,86
20.1577,81
20.1763,67
20.1948,71
20.2134,80
20.2320,94
20.2506,79
20.2691,76
20.2877,82
20.3063,100
20.3249,69
20.3434,86
20.3620,90
20.3806,87
20.3992,107
20.4177,88
20.4363,97
20.4549,94
20.4735,88
20.4921,81
20.5106,84
20.5292,98
20.5478,77
20.5664,87
20.5849,100
20.6035,95
20.6221,85
20.6407,93
20.6592,96
20.6778,93
20.6964,100
20.7150,110
20.7335,104
20.7521,97
20.7707,81
20.7893,95
20.8078,95
20.8264,107
20.8450,98
20.8636,98
20.8821,103
20.9007,103
20.9193,90
20.9379,80
20.9564,89
20.9750,84
20.9936,104
21.0122,79
21.0307,85
21.0493,94
21.0679,94
21.0865,97
21.1050,105
21.1236,106
21.1422,105
21.1608,119
21.1793,141
21.1979,129
21.2165,156
21.2351,149
21.2537,134
21.2722,146
21.2908,129
21.3094,162
21.3280,155
21.3465,219
21.3651,284
21.3837,179
21.4023,179
21.4208,175
21.4394,135
21.4580,108
21.4766,120
21.4951,93
21.5137,101
21.5323,93
21.5509,108
21.5694,93
21.5880,90
21.6066,102
21.6252,110
21.6437,94
21.6623,118
21.6809,109
21.6995,102
21.7180,88
21.7366,80
21.7552,99
21.7738,91
21.7923,107
21.8109,103
21.8295,80
21.8481,89
21.8666,89
21.8852,107
21.9038,92
21.9224,82
21.9409,93
21.9595,91
21.9781,78
21.9967,91
22.0152,102
22.0338,105
22.0524,118
22.0710,99
22.0896,90
22.1081,78
22.1267,83
22.1453,95
22.1639,109
22.1824,88
22.2010,117
22.2196,96
22.2382,114
22.2567,97
22.2753,92
22.2939,114
22.3125,83
22.3310,95
22.3496,92
22.3682,84
22.3868,91
22.4053,98
22.4239,95
22.4425,99
22.4611,80
22.4796,91
22.4982,100
22.5168,110
22.5354,121
22.5539,81
22.5725,89
22.5911,91
22.6097,105
22.6282,91
22.6468,109
22.6654,84
22.6840,86
22.7025,97
22.7211,112
22.7397,107
22.7583,105
22.7768,110
22.7954,98
22.8140,82
22.8326,77
22.8512,100
22.8697,96
22.8883,93
22.9069,115
22.9255,91
22.9440,98
22.9626,84
22.9812,107
22.9998,106
23.0183,110
23.0369,100
23.0555,93
23.0741,103
23.0926,98
23.1112,112
23.1298,113
23.1484,106
23.1669,86
23.1855,126
23.2041,87
23.2227,103
23.2412,86
23.2598,100
23.2784,93
23.2970,109
23.3155,88
23.3341,101
23.3527,123
23.3713,94
23.3898,95
23.4084,86
23.4270,109
23.4456,91
23.4641,82
23.4827,101
23.5013,88
23.5199,103
23.5384,110
23.5570,87
23.5756,97
23.5942,84
23.6128,96
23.6313,118
23.6499,88
23.6685,101
23.6871,86
23.7056,82
23.7242,85
23.7428,110
23.7614,135
23.7799,110
23.7985,97
23.8171,97
23.8357,109
23.8542,109
23.8728,109
23.8914,92
23.9100,107
23.9285,94
23.9471,105
23.9657,107
23.9843,109
24.0028,83
24.0214,111
24.0400,106
24.0586,105
24.0771,88
24.0957,70
24.1143,115
24.1329,92
24.1514,115
24.1700,86
24.1886,106
24.2072,95
24.2257,97
24.2443,84
24.2629,117
24.2815,108
24.3000,118
24.3186,107
24.3372,107
24.3558,103
24.3744,115
24.3929,100
24.4115,107
24.4301,95
24.4487,108
24.4672,97
24.4858,110
24.5044,91
24.5230,100
24.5415,111
24.5601,102
24.5787,72
24.5973,112
24.6158,105
24.6344,101
24.6530,95
24.6716,109
24.6901,110
24.7087,105
24.7273,96
24.7459,115
24.7644,107
24.7830,94
24.8016,97
24.8202,99
24.8387,95
24.8573,92
24.8759,82
24.8945,103
24.9130,106
24.9316,97
24.9502,108
24.9688,108
24.9873,84
25.0059,101
25.0245,86
25.0431,89
25.0616,102
25.0802,101
25.0988,105
25.1174,104
25.1360,93
25.1545,87
25.1731,101
25.1917,98
25.2103,103
25.2288,95
25.2474,102
25.2660,89
25.2846,102
25.3031,100
25.3217,108
25.3403,106
25.3589,91
25.3774,91
25.3960,106
25.4146,99
25.4332,110
25.4517,105
25.4703,105
25.4889,104
25.5075,109
25.5260,93
25.5446,100
25.5632,105
25.5818,118
25.6003,88
25.6189,91
25.6375,91
25.6561,96
25.6746,78
25.6932,89
25.7118,107
25.7304,103
25.7489,91
25.7675,93
25.7861,93
25.8047,86
25.8232,92
25.8418,100
25.8604,78
25.8790,91
25.8976,94
25.9161,90
25.9347,95
25.9533,81
25.9719,87
25.9904,113
26.0090,80
26.0276,109
26.0462,89
26.0647,119
26.0833,93
26.1019,105
26.1205,87
26.1390,106
26.1576,124
26.1762,103
26.1948,96
26.2133,86
26.2319,93
26.2505,106
26.2691,97
26.2876,98
26.3062,91
26.3248,89
26.3434,83
26.3619,105
26.3805,94
26.3991,102
26.4177,92
26.4362,114
26.4548,98
26.4734,83
26.4920,88
26.5105,94
26.5291,99
26.5477,97
26.5663,102
26.5848,86
26.6034,91
26.6220,75
26.6406,104
26.6591,105
26.6777,90
26.6963,97
26.7149,91
26.7335,90
26.7520,90
26.7706,84
26.7892,93
26.8078,85
26.8263,102
26.8449,75
26.8635,99
26.8821,87
26.9006,86
26.9192,95
26.9378,87
26.9564,101
26.9749,86
26.9935,83
27.0121,85
27.0307,127
27.0492,75
27.0678,93
27.0864,86
27.1050,86
27.1235,98
27.1421,100
27.1607,109
27.1793,98
27.1978,115
27.2164,137
27.2350,106
27.2536,115
27.2721,130
27.2907,99
27.3093,104
27.3279,90
27.3464,93
27.3650,87
27.3836,91
27.4022,86
27.4207,83
27.4393,108
27.4579,89
27.4765,86
27.4951,88
27.5136,85
27.5322,75
27.5508,104
27.5694,95
27.5879,87
27.6065,87
27.6251,86
27.6437,90
27.6622,86
27.6808,101
27.6994,80
27.7180,83
27.7365,86
27.7551,89
27.7737,83
27.7923,105
27.8108,85
27.8294,74
27.8480,88
27.8666,90
27.8851,85
27.9037,104
27.9223,86
27.9409,87
27.9594,90
27.9780,91
27.9966,85
28.0152,87
28.0337,76
28.0523,83
28.0709,86
28.0895,86
28.1080,94
28.1266,82
28.1452,86
28.1638,71
28.1823,91
28.2009,84
28.2195,95
28.2381,105
28.2567,78
28.2752,92
28.2938,85
28.3124,87
28.3310,84
28.3495,78
28.3681,89
28.3867,72
28.4053,86
28.4238,79
28.4424,77
28.4610,79
28.4796,78
28.4981,82
28.5167,90
28.5353,94
28.5539,84
28.5724,80
28.5910,80
28.6096,79
28.6282,78
28.6467,89
28.6653,99
28.6839,85
28.7025,62
28.7210,78
28.7396,89
28.7582,72
28.7768,73
28.7953,66
28.8139,73
28.8325,98
28.8511,73
28.8696,81
28.8882,69
28.9068,69
28.9254,72
28.9439,84
28.9625,82
28.9811,70
28.9997,96
29.0183,93
29.0368,81
29.0554,69
29.0740,71
29.0926,80
29.1111,76
29.1297,79
29.1483,80
29.1669,78
29.1854,91
29.2040,95
29.2226,93
29.2412,69
29.2597,80
29.2783,86
29.2969,89
29.3155,67
29.3340,86
29.3526,84
29.3712,96
29.3898,79
29.4083,81
29.4269,79
29.4455,87
29.4641,86
29.4826,92
29.5012,78
29.5198,80
29.5384,86
29.5569,75
29.5755,94
29.5941,87
29.6127,69
29.6312,84
29.6498,66
29.6684,87
29.6870,94
29.7055,93
29.7241,87
29.7427,74
29.7613,69
29.7799,82
29.7984,79
29.8170,76
29.8356,81
29.8542,71
29.8727,77
29.8913,76
29.9099,75
29.9285,83
29.9470,75
29.9656,65
29.9842,73
30.0028,76
30.0213,68
30.0399,73
30.0585,91
30.0771,80
30.0956,87
30.1142,72
30.1328,73
30.1514,84
30.1699,100
30.1885,84
30.2071,81
30.2257,79
30.2442,71
30.2628,86
30.2814,71
30.3000,88
30.3185,88
30.3371,97
30.3557,117
30.3743,141
30.3928,173
30.4114,119
30.4300,100
30.4486,126
30.4671,143
30.4857,106
30.5043,84
30.5229,102
30.5415,74
30.5600,66
30.5786,74
30.5972,90
30.6158,73
30.6343,73
30.6529,80
30.6715,78
30.6901,79
30.7086,68
30.7272,85
30.7458,75
30.7644,85
30.7829,69
30.8015,77
30.8201,61
30.8387,67
30.8572,82
30.8758,62
30.8944,78
30.9130,70
30.9315,95
30.9501,68
30.9687,56
30.9873,76
31.0058,84
31.0244,60
31.0430,79
31.0616,55
31.0801,76
31.0987,62
31.1173,84
31.1359,81
31.1544,83
31.1730,55
31.1916,75
31.2102,54
31.2287,64
31.2473,65
31.2659,56
31.2845,65
31.3030,72
31.3216,78
31.3402,76
31.3588,87
31.3774,54
31.3959,64
31.4145,64
31.4331,84
31.4517,66
31.4702,71
31.4888,83
31.5074,68
31.5260,60
31.5445,66
31.5631,78
31.5817,78
31.6003,65
31.6188,72
31.6374,68
31.6560,58
31.6746,63
31.6931,62
31.7117,64
31.7303,90
31.7489,48
31.7674,57
31.7860,59
31.8046,66
31.8232,72
31.8417,67
31.8603,74
31.8789,75
31.8975,71
31.9160,62
31.9346,72
31.9532,64
31.9718,58
31.9903,69
32.0089,65
32.0275,60
32.0461,60
32.0646,58
32.0832,66
32.1018,83
32.1204,59
32.1390,60
32.1575,74
32.1761,68
32.1947,60
32.2133,69
32.2318,63
32.2504,72
32.2690,71
32.2876,73
32.3061,69
32.3247,82
32.3433,69
32.3619,90
32.3804,83
32.3990,76
32.4176,80
32.4362,80
32.4547,65
32.4733,70
32.4919,70
32.5105,60
32.5290,84
32.5476,80
32.5662,87
32.5848,63
32.6033,70
32.6219,71
32.6405,77
32.6591,77
32.6776,45
32.6962,51
32.7148,62
32.7334,59
32.7519,59
32.7705,59
32.7891,53
32.8077,59
32.8262,68
32.8448,52
32.8634,43
32.8820,71
32.9006,60
32.9191,63
32.9377,61
32.9563,67
32.9749,64
32.9934,53
33.0120,62
33.0306,57
33.0492,58
33.0677,59
33.0863,61
33.1049,55
33.1235,69
33.1420,67
33.1606,56
33.1792,55
33.1978,52
33.2163,65
33.2349,54
33.2535,60
33.2721,75
33.2906,77
33.3092,57
33.3278,48
33.3464,54
33.3649,56
33.3835,51
33.4021,54
33.4207,46
33.4392,62
33.4578,69
33.4764,70
33.4950,59
33.5135,54
33.5321,57
33.5507,72
33.5693,59
33.5878,53
33.6064,68
33.6250,64
33.6436,52
33.6622,62
33.6807,64
33.6993,66
33.7179,52
33.7365,51
33.7550,63
33.7736,59
33.7922,79
33.8108,66
33.8293,76
33.8479,77
33.8665,72
33.8851,52
33.9036,48
33.9222,48
33.9408,61
33.9594,57
33.9779,49
33.9965,58
34.0151,54
34.0337,43
34.0522,66
34.0708,56
34.0894,66
34.1080,54
34.1265,44
34.1451,61
34.1637,46
34.1823,48
34.2008,47
34.2194,67
34.2380,54
34.2566,50
34.2751,43
34.2937,50
34.3123,54
34.3309,58
34.3494,62
34.3680,60
34.3866,63
34.4052,46
34.4238,61
34.4423,52
34.4609,64
34.4795,58
34.4981,54
34.5166,65
34.5352,67
34.5538,63
34.5724,70
34.5909,62
34.6095,63
34.6281,56
34.6467,66
34.6652,61
34.6838,62
34.7024,53
34.7210,57
34.7395,58
34.7581,77
34.7767,71
34.7953,63
34.8138,80
34.8324,62
34.8510,70
34.8696,79
34.8881,76
34.9067,53
34.9253,67
34.9439,52
34.9624,65
34.9810,51
34.9996,55
35.0182,46
35.0367,48
35.0553,73
35.0739,57
35.0925,56
35.1110,62
35.1296,45
35.1482,54
35.1668,48
35.1854,57
35.2039,48
35.2225,68
35.2411,63
35.2597,41
35.2782,55
35.2968,57
35.3154,59
35.3340,52
35.3525,53
35.3711,54
35.3897,56
35.4083,53
35.4268,55
35.4454,54
35.4640,45
35.4826,52
35.5011,47
35.5197,41
35.5383,39
35.5569,49
35.5754,55
35.5940,65
35.6126,61
35.6312,46
35.6497,53
35.6683,50
35.6869,42
35.7055,57
35.7240,53
35.7426,44
35.7612,46
35.7798,48
35.7983,54
35.8169,49
35.8355,43
35.8541,47
35.8726,49
35.8912,43
35.9098,44
35.9284,47
35.9469,50
35.9655,63
35.9841,51
36.0027,41
36.0213,47
36.0398,58
36.0584,41
36.0770,47
36.0956,53
36.1141,52
36.1327,47
36.1513,46
36.1699,56
36.1884,38
36.2070,52
36.2256,42
36.2442,54
36.2627,51
36.2813,45
36.2999,51
36.3185,51
36.3370,56
36.3556,33
36.3742,48
36.3928,56
36.4113,43
36.4299,41
36.4485,43
36.4671,44
36.4856,52
36.5042,50
36.5228,59
36.5414,43
36.5599,43
36.5785,49
36.5971,48
36.6157,42
36.6342,53
36.6528,54
36.6714,47
36.6900,37
36.7085,48
36.7271,43
36.7457,50
36.7643,49
36.7829,44
36.8014,54
36.8200,54
36.8386,43
36.8572,63
36.8757,43
36.8943,56
36.9129,50
36.9315,44
36.9500,76
36.9686,35
36.9872,49
37.0058,31
37.0243,52
37.0429,45
37.0615,50
37.0801,43
37.0986,45
37.1172,42
37.1358,48
37.1544,52
37.1729,54
37.1915,49
37.2101,51
37.2287,38
37.2472,40
37.2658,48
37.2844,47
37.3030,41
37.3215,52
37.3401,43
37.3587,37
37.3773,42
37.3958,57
37.4144,70
37.4330,68
37.4516,80
37.4701,69
37.4887,68
37.5073,53
37.5259,64
37.5445,55
37.5630,52
37.5816,48
37.6002,50
37.6188,38
37.6373,41
37.6559,50
37.6745,45
37.6931,47
37.7116,43
37.7302,52
37.7488,59
37.7674,51
37.7859,42
37.8045,39
37.8231,45
37.8417,47
37.8602,44
37.8788,44
37.8974,44
37.9160,55
37.9345,42
37.9531,40
37.9717,38
37.9903,46
38.0088,48
38.0274,49
38.0460,49
38.0646,52
38.0831,26
38.1017,40
38.1203,53
38.1389,37
38.1574,42
38.1760,44
38.1946,46
38.2132,44
38.2317,45
38.2503,39
38.2689,42
38.2875,48
38.3061,51
38.3246,41
38.3432,37
38.3618,27
38.3804,36
