; (content of file Y:\Sam\Apurva-07-20-2022\puck1\ML_20220721_36_SJD_0_LaB6-4min.raw)
_FILEVERSION = 3
_SAMPLE = ML_20220721_36_SJD_0_LaB6-4min
_+SAMPLE = 
_SITE = USA
_USER = Administrator
_GONIOMETER_CODE = 20
; Goniometer : D8 theta/2theta, stage : Unknown
_ATTACHMENTS_CODE = 0
_GONIOMETER_RADIUS = 200.5
_FIXED_DIVSLIT = 0.6
_FIXED_SAMPLESLIT = 0
_SOLLER_SLITS = 2
_FIXED_DETSLIT = 9.55
_MONOCHROMATOR = 0
; Incident beam monochromator : None
_SOLLER_SLITS_2 = N
_THIN_FILM = N
_BETA_FILTER = Y
_FIXED_ANTISLIT = 5.89
_ANALYZER_CODE = 0
; Received beam analyzer : None
_DATEMEASURED = "25-Jul-2022 16:33:52"
_WL_UNIT = A
_WL1 = 1.5406
_WL2 = 1.54439
_WL3 = 1.39222
_WLRATIO = 0.5
_ANODE = Cu
_V4_INF_CREATOR = XRDWizard
_V4_INF_CREATOR_VERSION = V2.9.0.22
_V4_INF_WIZARD_VERSION = V2.9.0.22
_V4_INF_WIZARD_ADDINS = V2.9.0.22
_V4_INF_WIZARD_DOCTYPE = XRD
_V4_INF_OSUSER = McQueenLab
_V4_INF_USER = Administrator
_V4_INF_SITE = USA
_V4_INF_SAMPLEID = ML_20220721_36_SJD_0_LaB6-4min

; Data for range 1
_DRIVE = COUPLED
_STEPTIME = 11.28
_STEPSIZE = 0.0185756
_STEPMODE = C
_START = 5
_THETA = 2.5
_2THETA = 5
_KHI = 0
_PHI = 0
_X = 0
_Y = 0
_Z = 0
_DETECTOR = 5
; Detector type : Unknown
_DETECTORSLIT = unkn
_AUX1 = 0
_AUX2 = 0
_AUX3 = 0
_TIMESTARTED = 15
_TEMP_RATE = -1
_TEMP_DELAY = -1
_KV = 40
_MA = 40
_RANGE_WL = 1.5406
_3DPLANE = 0
_V4_ADDITIONALDETECTOR = 257
_V4_PSD2THETA = 3.3675
_V4_PSDCHANNEL1 = 0
_V4_PSDAPERTURE = 12.68
_V4_PSDTYPE = 5
_V4_PSDFIXED = 0
_V4_COUNTERS_MASK = 4096
_V4_DRIVES_MASK = 0
_V4_ENCODERS_MASK = 0
_2THETACOUNTS = 1
; 2THETA  PSD
   5.0000        275
   5.0186        268
   5.0372        263
   5.0557        298
   5.0743        267
   5.0929        269
   5.1115        249
   5.1300        267
   5.1486        282
   5.1672        253
   5.1858        275
   5.2043        259
   5.2229        228
   5.2415        234
   5.2601        237
   5.2786        244
   5.2972        249
   5.3158        228
   5.3344        267
   5.3529        230
   5.3715        207
   5.3901        244
   5.4087        208
   5.4272        253
   5.4458        216
   5.4644        241
   5.4830        261
   5.5015        223
   5.5201        227
   5.5387        231
   5.5573        222
   5.5758        222
   5.5944        216
   5.6130        219
   5.6316        200
   5.6501        230
   5.6687        224
   5.6873        237
   5.7059        223
   5.7244        229
   5.7430        197
   5.7616        237
   5.7802        224
   5.7988        227
   5.8173        223
   5.8359        231
   5.8545        213
   5.8731        213
   5.8916        220
   5.9102        201
   5.9288        209
   5.9474        181
   5.9659        210
   5.9845        204
   6.0031        200
   6.0217        199
   6.0402        200
   6.0588        206
   6.0774        193
   6.0960        189
   6.1145        219
   6.1331        176
   6.1517        202
   6.1703        187
   6.1888        183
   6.2074        207
   6.2260        205
   6.2446        197
   6.2631        194
   6.2817        182
   6.3003        198
   6.3189        201
   6.3374        184
   6.3560        175
   6.3746        195
   6.3932        175
   6.4117        180
   6.4303        189
   6.4489        178
   6.4675        215
   6.4860        187
   6.5046        165
   6.5232        165
   6.5418        187
   6.5604        180
   6.5789        174
   6.5975        193
   6.6161        192
   6.6347        191
   6.6532        173
   6.6718        184
   6.6904        184
   6.7090        179
   6.7275        175
   6.7461        153
   6.7647        172
   6.7833        171
   6.8018        196
   6.8204        183
   6.8390        155
   6.8576        157
   6.8761        180
   6.8947        152
   6.9133        156
   6.9319        163
   6.9504        158
   6.9690        160
   6.9876        158
   7.0062        140
   7.0247        165
   7.0433        156
   7.0619        166
   7.0805        150
   7.0990        159
   7.1176        159
   7.1362        150
   7.1548        172
   7.1733        170
   7.1919        151
   7.2105        144
   7.2291        158
   7.2476        162
   7.2662        149
   7.2848        152
   7.3034        165
   7.3220        148
   7.3405        136
   7.3591        147
   7.3777        157
   7.3963        151
   7.4148        181
   7.4334        163
   7.4520        162
   7.4706        156
   7.4891        180
   7.5077        143
   7.5263        171
   7.5449        165
   7.5634        173
   7.5820        177
   7.6006        163
   7.6192        178
   7.6377        177
   7.6563        186
   7.6749        164
   7.6935        164
   7.7120        208
   7.7306        178
   7.7492        194
   7.7678        169
   7.7863        170
   7.8049        192
   7.8235        193
   7.8421        174
   7.8606        201
   7.8792        185
   7.8978        180
   7.9164        151
   7.9349        183
   7.9535        193
   7.9721        195
   7.9907        192
   8.0092        183
   8.0278        188
   8.0464        196
   8.0650        180
   8.0835        179
   8.1021        184
   8.1207        231
   8.1393        195
   8.1579        166
   8.1764        197
   8.1950        218
   8.2136        187
   8.2322        188
   8.2507        178
   8.2693        197
   8.2879        214
   8.3065        196
   8.3250        198
   8.3436        210
   8.3622        197
   8.3808        199
   8.3993        192
   8.4179        183
   8.4365        199
   8.4551        190
   8.4736        193
   8.4922        233
   8.5108        185
   8.5294        190
   8.5479        177
   8.5665        194
   8.5851        196
   8.6037        194
   8.6222        178
   8.6408        211
   8.6594        189
   8.6780        245
   8.6965        217
   8.7151        210
   8.7337        208
   8.7523        191
   8.7708        201
   8.7894        194
   8.8080        229
   8.8266        191
   8.8451        220
   8.8637        235
   8.8823        225
   8.9009        213
   8.9195        214
   8.9380        230
   8.9566        226
   8.9752        237
   8.9938        214
   9.0123        215
   9.0309        225
   9.0495        206
   9.0681        219
   9.0866        218
   9.1052        209
   9.1238        195
   9.1424        181
   9.1609        195
   9.1795        197
   9.1981        216
   9.2167        220
   9.2352        220
   9.2538        193
   9.2724        221
   9.2910        235
   9.3095        214
   9.3281        209
   9.3467        211
   9.3653        237
   9.3838        227
   9.4024        204
   9.4210        217
   9.4396        214
   9.4581        212
   9.4767        266
   9.4953        222
   9.5139        231
   9.5324        213
   9.5510        247
   9.5696        227
   9.5882        219
   9.6067        230
   9.6253        224
   9.6439        235
   9.6625        227
   9.6811        200
   9.6996        240
   9.7182        252
   9.7368        221
   9.7554        216
   9.7739        258
   9.7925        251
   9.8111        247
   9.8297        247
   9.8482        235
   9.8668        252
   9.8854        247
   9.9040        221
   9.9225        237
   9.9411        223
   9.9597        225
   9.9783        253
   9.9968        219
  10.0154        233
  10.0340        241
  10.0526        235
  10.0711        246
  10.0897        229
  10.1083        248
  10.1269        255
  10.1454        268
  10.1640        241
  10.1826        221
  10.2012        233
  10.2197        240
  10.2383        240
  10.2569        254
  10.2755        243
  10.2940        221
  10.3126        239
  10.3312        241
  10.3498        248
  10.3683        239
  10.3869        226
  10.4055        259
  10.4241        247
  10.4427        239
  10.4612        256
  10.4798        250
  10.4984        229
  10.5170        262
  10.5355        254
  10.5541        241
  10.5727        235
  10.5913        230
  10.6098        233
  10.6284        233
  10.6470        268
  10.6656        256
  10.6841        243
  10.7027        247
  10.7213        238
  10.7399        219
  10.7584        275
  10.7770        233
  10.7956        239
  10.8142        249
  10.8327        222
  10.8513        235
  10.8699        233
  10.8885        251
  10.9070        226
  10.9256        234
  10.9442        234
  10.9628        241
  10.9813        241
  10.9999        288
  11.0185        221
  11.0371        234
  11.0556        235
  11.0742        235
  11.0928        246
  11.1114        247
  11.1299        240
  11.1485        252
  11.1671        228
  11.1857        232
  11.2043        232
  11.2228        235
  11.2414        255
  11.2600        243
  11.2786        227
  11.2971        221
  11.3157        220
  11.3343        244
  11.3529        243
  11.3714        259
  11.3900        222
  11.4086        249
  11.4272        203
  11.4457        225
  11.4643        230
  11.4829        246
  11.5015        222
  11.5200        244
  11.5386        271
  11.5572        257
  11.5758        245
  11.5943        214
  11.6129        253
  11.6315        231
  11.6501        245
  11.6686        222
  11.6872        221
  11.7058        198
  11.7244        232
  11.7429        230
  11.7615        222
  11.7801        224
  11.7987        244
  11.8172        227
  11.8358        221
  11.8544        240
  11.8730        234
  11.8915        222
  11.9101        237
  11.9287        242
  11.9473        229
  11.9659        213
  11.9844        238
  12.0030        209
  12.0216        239
  12.0402        260
  12.0587        233
  12.0773        229
  12.0959        226
  12.1145        201
  12.1330        210
  12.1516        228
  12.1702        223
  12.1888        223
  12.2073        216
  12.2259        237
  12.2445        221
  12.2631        206
  12.2816        253
  12.3002        225
  12.3188        195
  12.3374        215
  12.3559        204
  12.3745        218
  12.3931        234
  12.4117        211
  12.4302        230
  12.4488        231
  12.4674        241
  12.4860        238
  12.5045        214
  12.5231        209
  12.5417        216
  12.5603        219
  12.5788        208
  12.5974        223
  12.6160        194
  12.6346        182
  12.6531        213
  12.6717        217
  12.6903        206
  12.7089        212
  12.7274        192
  12.7460        223
  12.7646        201
  12.7832        193
  12.8018        190
  12.8203        208
  12.8389        220
  12.8575        223
  12.8761        199
  12.8946        193
  12.9132        207
  12.9318        190
  12.9504        195
  12.9689        216
  12.9875        220
  13.0061        194
  13.0247        219
  13.0432        212
  13.0618        208
  13.0804        201
  13.0990        217
  13.1175        188
  13.1361        204
  13.1547        198
  13.1733        185
  13.1918        196
  13.2104        226
  13.2290        196
  13.2476        209
  13.2661        211
  13.2847        207
  13.3033        202
  13.3219        220
  13.3404        179
  13.3590        196
  13.3776        193
  13.3962        184
  13.4147        177
  13.4333        197
  13.4519        192
  13.4705        193
  13.4890        214
  13.5076        218
  13.5262        190
  13.5448        215
  13.5634        185
  13.5819        198
  13.6005        183
  13.6191        211
  13.6377        192
  13.6562        182
  13.6748        183
  13.6934        163
  13.7120        187
  13.7305        189
  13.7491        202
  13.7677        195
  13.7863        198
  13.8048        176
  13.8234        187
  13.8420        202
  13.8606        208
  13.8791        197
  13.8977        190
  13.9163        194
  13.9349        199
  13.9534        206
  13.9720        184
  13.9906        170
  14.0092        190
  14.0277        182
  14.0463        173
  14.0649        175
  14.0835        168
  14.1020        170
  14.1206        179
  14.1392        163
  14.1578        187
  14.1763        182
  14.1949        194
  14.2135        161
  14.2321        170
  14.2506        180
  14.2692        204
  14.2878        177
  14.3064        182
  14.3250        179
  14.3435        167
  14.3621        179
  14.3807        197
  14.3993        163
  14.4178        173
  14.4364        176
  14.4550        168
  14.4736        186
  14.4921        199
  14.5107        189
  14.5293        160
  14.5479        166
  14.5664        161
  14.5850        176
  14.6036        175
  14.6222        181
  14.6407        162
  14.6593        170
  14.6779        162
  14.6965        145
  14.7150        176
  14.7336        176
  14.7522        178
  14.7708        166
  14.7893        188
  14.8079        209
  14.8265        169
  14.8451        165
  14.8636        167
  14.8822        168
  14.9008        163
  14.9194        169
  14.9379        172
  14.9565        168
  14.9751        181
  14.9937        170
  15.0122        163
  15.0308        174
  15.0494        168
  15.0680        172
  15.0866        168
  15.1051        125
  15.1237        184
  15.1423        161
  15.1609        168
  15.1794        172
  15.1980        174
  15.2166        164
  15.2352        149
  15.2537        178
  15.2723        165
  15.2909        161
  15.3095        156
  15.3280        145
  15.3466        166
  15.3652        167
  15.3838        164
  15.4023        166
  15.4209        181
  15.4395        180
  15.4581        166
  15.4766        162
  15.4952        178
  15.5138        166
  15.5324        144
  15.5509        156
  15.5695        166
  15.5881        188
  15.6067        171
  15.6252        144
  15.6438        134
  15.6624        184
  15.6810        162
  15.6995        182
  15.7181        174
  15.7367        165
  15.7553        171
  15.7738        201
  15.7924        148
  15.8110        173
  15.8296        164
  15.8482        159
  15.8667        167
  15.8853        180
  15.9039        156
  15.9225        150
  15.9410        173
  15.9596        155
  15.9782        165
  15.9968        157
  16.0153        159
  16.0339        159
  16.0525        176
  16.0711        175
  16.0896        174
  16.1082        151
  16.1268        154
  16.1454        173
  16.1639        163
  16.1825        159
  16.2011        134
  16.2197        144
  16.2382        169
  16.2568        145
  16.2754        138
  16.2940        154
  16.3125        157
  16.3311        155
  16.3497        168
  16.3683        161
  16.3868        153
  16.4054        163
  16.4240        146
  16.4426        170
  16.4611        179
  16.4797        142
  16.4983        158
  16.5169        142
  16.5354        173
  16.5540        152
  16.5726        174
  16.5912        140
  16.6097        191
  16.6283        159
  16.6469        153
  16.6655        176
  16.6841        169
  16.7026        161
  16.7212        171
  16.7398        173
  16.7584        156
  16.7769        159
  16.7955        158
  16.8141        147
  16.8327        164
  16.8512        170
  16.8698        158
  16.8884        148
  16.9070        152
  16.9255        153
  16.9441        169
  16.9627        150
  16.9813        162
  16.9998        155
  17.0184        193
  17.0370        167
  17.0556        169
  17.0741        166
  17.0927        167
  17.1113        153
  17.1299        178
  17.1484        174
  17.1670        166
  17.1856        164
  17.2042        159
  17.2227        151
  17.2413        150
  17.2599        171
  17.2785        166
  17.2970        163
  17.3156        161
  17.3342        140
  17.3528        181
  17.3713        138
  17.3899        156
  17.4085        164
  17.4271        143
  17.4457        168
  17.4642        171
  17.4828        155
  17.5014        173
  17.5200        173
  17.5385        150
  17.5571        180
  17.5757        185
  17.5943        166
  17.6128        120
  17.6314        164
  17.6500        138
  17.6686        129
  17.6871        177
  17.7057        170
  17.7243        174
  17.7429        149
  17.7614        152
  17.7800        188
  17.7986        173
  17.8172        175
  17.8357        156
  17.8543        167
  17.8729        179
  17.8915        152
  17.9100        170
  17.9286        165
  17.9472        154
  17.9658        178
  17.9843        171
  18.0029        180
  18.0215        150
  18.0401        161
  18.0586        157
  18.0772        150
  18.0958        154
  18.1144        181
  18.1329        182
  18.1515        155
  18.1701        177
  18.1887        141
  18.2073        188
  18.2258        163
  18.2444        144
  18.2630        123
  18.2816        165
  18.3001        174
  18.3187        157
  18.3373        150
  18.3559        158
  18.3744        173
  18.3930        163
  18.4116        165
  18.4302        161
  18.4487        165
  18.4673        174
  18.4859        168
  18.5045        172
  18.5230        177
  18.5416        186
  18.5602        170
  18.5788        156
  18.5973        158
  18.6159        149
  18.6345        160
  18.6531        164
  18.6716        146
  18.6902        149
  18.7088        170
  18.7274        171
  18.7459        154
  18.7645        188
  18.7831        151
  18.8017        167
  18.8202        166
  18.8388        175
  18.8574        171
  18.8760        180
  18.8945        175
  18.9131        170
  18.9317        175
  18.9503        175
  18.9689        172
  18.9874        164
  19.0060        168
  19.0246        153
  19.0432        174
  19.0617        181
  19.0803        153
  19.0989        191
  19.1175        186
  19.1360        137
  19.1546        148
  19.1732        186
  19.1918        150
  19.2103        179
  19.2289        194
  19.2475        197
  19.2661        206
  19.2846        176
  19.3032        173
  19.3218        163
  19.3404        166
  19.3589        164
  19.3775        191
  19.3961        185
  19.4147        193
  19.4332        180
  19.4518        199
  19.4704        155
  19.4890        170
  19.5075        197
  19.5261        149
  19.5447        163
  19.5633        202
  19.5818        175
  19.6004        180
  19.6190        184
  19.6376        179
  19.6561        156
  19.6747        188
  19.6933        179
  19.7119        174
  19.7305        185
  19.7490        183
  19.7676        164
  19.7862        182
  19.8048        195
  19.8233        197
  19.8419        171
  19.8605        183
  19.8791        178
  19.8976        184
  19.9162        177
  19.9348        185
  19.9534        189
  19.9719        176
  19.9905        158
  20.0091        189
  20.0277        194
  20.0462        168
  20.0648        213
  20.0834        173
  20.1020        199
  20.1205        186
  20.1391        165
  20.1577        190
  20.1763        179
  20.1948        185
  20.2134        175
  20.2320        195
  20.2506        187
  20.2691        183
  20.2877        188
  20.3063        184
  20.3249        177
  20.3434        167
  20.3620        184
  20.3806        164
  20.3992        181
  20.4177        192
  20.4363        178
  20.4549        202
  20.4735        184
