; (content of file Y:\Sam\Apurva-07-20-2022\puck4\ML_20220718_56_SJD_4_LaB6-1min.raw)
_FILEVERSION = 3
_SAMPLE = ML_20220718_56_SJD_4_LaB6-1min
_+SAMPLE = 
_SITE = USA
_USER = Administrator
_GONIOMETER_CODE = 20
; Goniometer : D8 theta/2theta, stage : Unknown
_ATTACHMENTS_CODE = 0
_GONIOMETER_RADIUS = 200.5
_FIXED_DIVSLIT = 0.6
_FIXED_SAMPLESLIT = 0
_SOLLER_SLITS = 2
_FIXED_DETSLIT = 9.55
_MONOCHROMATOR = 0
; Incident beam monochromator : None
_SOLLER_SLITS_2 = N
_THIN_FILM = N
_BETA_FILTER = Y
_FIXED_ANTISLIT = 5.89
_ANALYZER_CODE = 0
; Received beam analyzer : None
_DATEMEASURED = "26-Jul-2022 11:00:35"
_WL_UNIT = A
_WL1 = 1.5406
_WL2 = 1.54439
_WL3 = 1.39222
_WLRATIO = 0.5
_ANODE = Cu
_V4_INF_CREATOR = XRDWizard
_V4_INF_CREATOR_VERSION = V2.9.0.22
_V4_INF_WIZARD_VERSION = V2.9.0.22
_V4_INF_WIZARD_ADDINS = V2.9.0.22
_V4_INF_WIZARD_DOCTYPE = XRD
_V4_INF_OSUSER = McQueenLab
_V4_INF_USER = Administrator
_V4_INF_SITE = USA
_V4_INF_SAMPLEID = ML_20220718_56_SJD_4_LaB6-1min

; Data for range 1
_DRIVE = COUPLED
_STEPTIME = 4.23
_STEPSIZE = 0.0185756
_STEPMODE = C
_START = 5
_THETA = 2.5
_2THETA = 5
_KHI = 0
_PHI = 0
_X = 0
_Y = 0
_Z = 0
_DETECTOR = 5
; Detector type : Unknown
_DETECTORSLIT = unkn
_AUX1 = 0
_AUX2 = 0
_AUX3 = 0
_TIMESTARTED = 15
_TEMP_RATE = -1
_TEMP_DELAY = -1
_KV = 40
_MA = 40
_RANGE_WL = 1.5406
_3DPLANE = 0
_V4_ADDITIONALDETECTOR = 257
_V4_PSD2THETA = 3.3771
_V4_PSDCHANNEL1 = 0
_V4_PSDAPERTURE = 12.68
_V4_PSDTYPE = 5
_V4_PSDFIXED = 0
_V4_COUNTERS_MASK = 4096
_V4_DRIVES_MASK = 0
_V4_ENCODERS_MASK = 0
_2THETACOUNTS = 1
; 2THETA  PSD
   5.0000         99
   5.0186        106
   5.0372         96
   5.0557         90
   5.0743         83
   5.0929         96
   5.1115        104
   5.1300        105
   5.1486         95
   5.1672         91
   5.1858        102
   5.2043        105
   5.2229         85
   5.2415         91
   5.2601         85
   5.2786        107
   5.2972         93
   5.3158         86
   5.3344         96
   5.3529         97
   5.3715         81
   5.3901         95
   5.4087         76
   5.4272         82
   5.4458         93
   5.4644         84
   5.4830         65
   5.5015         81
   5.5201         89
   5.5387         96
   5.5573         89
   5.5758         83
   5.5944         75
   5.6130         92
   5.6316         69
   5.6501         83
   5.6687         87
   5.6873         79
   5.7059         98
   5.7244         82
   5.7430         92
   5.7616         92
   5.7802         75
   5.7988         84
   5.8173         83
   5.8359         85
   5.8545         84
   5.8731         73
   5.8916         72
   5.9102         74
   5.9288         66
   5.9474         72
   5.9659         66
   5.9845         81
   6.0031         87
   6.0217         81
   6.0402         64
   6.0588         64
   6.0774         63
   6.0960         82
   6.1145         73
   6.1331         58
   6.1517         50
   6.1703         72
   6.1888         65
   6.2074         71
   6.2260         54
   6.2446         61
   6.2631         51
   6.2817         63
   6.3003         74
   6.3189         71
   6.3374         62
   6.3560         65
   6.3746         70
   6.3932         69
   6.4117         72
   6.4303         60
   6.4489         58
   6.4675         69
   6.4860         66
   6.5046         54
   6.5232         66
   6.5418         64
   6.5604         55
   6.5789         81
   6.5975         73
   6.6161         75
   6.6347         62
   6.6532         58
   6.6718         61
   6.6904         67
   6.7090         78
   6.7275         79
   6.7461         65
   6.7647         57
   6.7833         54
   6.8018         66
   6.8204         50
   6.8390         65
   6.8576         70
   6.8761         64
   6.8947         52
   6.9133         48
   6.9319         65
   6.9504         62
   6.9690         63
   6.9876         69
   7.0062         59
   7.0247         47
   7.0433         63
   7.0619         47
   7.0805         57
   7.0990         64
   7.1176         42
   7.1362         41
   7.1548         59
   7.1733         50
   7.1919         50
   7.2105         53
   7.2291         77
   7.2476         65
   7.2662         59
   7.2848         61
   7.3034         76
   7.3220         65
   7.3405         51
   7.3591         63
   7.3777         67
   7.3963         52
   7.4148         61
   7.4334         51
   7.4520         61
   7.4706         70
   7.4891         54
   7.5077         66
   7.5263         49
   7.5449         54
   7.5634         64
   7.5820         66
   7.6006         65
   7.6192         72
   7.6377         63
   7.6563         61
   7.6749         56
   7.6935         71
   7.7120         56
   7.7306         59
   7.7492         67
   7.7678         57
   7.7863         66
   7.8049         74
   7.8235         71
   7.8421         69
   7.8606         63
   7.8792         76
   7.8978         77
   7.9164         53
   7.9349         89
   7.9535         63
   7.9721         63
   7.9907         67
   8.0092         69
   8.0278         66
   8.0464         66
   8.0650         67
   8.0835         74
   8.1021         62
   8.1207         66
   8.1393         73
   8.1579         67
   8.1764         77
   8.1950         68
   8.2136         78
   8.2322         62
   8.2507         60
   8.2693         68
   8.2879         63
   8.3065         77
   8.3250         72
   8.3436         87
   8.3622         81
   8.3808         68
   8.3993         81
   8.4179         86
   8.4365         67
   8.4551         87
   8.4736         64
   8.4922         70
   8.5108         76
   8.5294         72
   8.5479         72
   8.5665         79
   8.5851         78
   8.6037         77
   8.6222         81
   8.6408         95
   8.6594         70
   8.6780         74
   8.6965         78
   8.7151         64
   8.7337         76
   8.7523         66
   8.7708         84
   8.7894         62
   8.8080         76
   8.8266         78
   8.8451         73
   8.8637         79
   8.8823         73
   8.9009         82
   8.9195         75
   8.9380         82
   8.9566         70
   8.9752         82
   8.9938         75
   9.0123         83
   9.0309         90
   9.0495         71
   9.0681         60
   9.0866         65
   9.1052         92
   9.1238         73
   9.1424         76
   9.1609         68
   9.1795         81
   9.1981         78
   9.2167         90
   9.2352         81
   9.2538         79
   9.2724         92
   9.2910         87
   9.3095         78
   9.3281         70
   9.3467         76
   9.3653         92
   9.3838         78
   9.4024         69
   9.4210         85
   9.4396         68
   9.4581         80
   9.4767         76
   9.4953         63
   9.5139         94
   9.5324         82
   9.5510         75
   9.5696         92
   9.5882         80
   9.6067         79
   9.6253         78
   9.6439         95
   9.6625         82
   9.6811         83
   9.6996         90
   9.7182         83
   9.7368         81
   9.7554         87
   9.7739         70
   9.7925         89
   9.8111         94
   9.8297         80
   9.8482        107
   9.8668         90
   9.8854         75
   9.9040         98
   9.9225         85
   9.9411         81
   9.9597         79
   9.9783         80
   9.9968         81
  10.0154         98
  10.0340         97
  10.0526         77
  10.0711         85
  10.0897         93
  10.1083         70
  10.1269         87
  10.1454         88
  10.1640         78
  10.1826        103
  10.2012        100
  10.2197         91
  10.2383         78
  10.2569         74
  10.2755         83
  10.2940         87
  10.3126         93
  10.3312         87
  10.3498         79
  10.3683         87
  10.3869         70
  10.4055         68
  10.4241         87
  10.4427         90
  10.4612         88
  10.4798         69
  10.4984         82
  10.5170        100
  10.5355         91
  10.5541         72
  10.5727         91
  10.5913         96
  10.6098         79
  10.6284         90
  10.6470        102
  10.6656        105
  10.6841         91
  10.7027         78
  10.7213         75
  10.7399         72
  10.7584         93
  10.7770         70
  10.7956         94
  10.8142         91
  10.8327         76
  10.8513         92
  10.8699        108
  10.8885         81
  10.9070        107
  10.9256         89
  10.9442        104
  10.9628        102
  10.9813         91
  10.9999         82
  11.0185         92
  11.0371         82
  11.0556         82
  11.0742         88
  11.0928         78
  11.1114         84
  11.1299        117
  11.1485         80
  11.1671         84
  11.1857         87
  11.2043         87
  11.2228        100
  11.2414        106
  11.2600         85
  11.2786         95
  11.2971         94
  11.3157         97
  11.3343         99
  11.3529         94
  11.3714         87
  11.3900         84
  11.4086         92
  11.4272         81
  11.4457         93
  11.4643         88
  11.4829         90
  11.5015         80
  11.5200         86
  11.5386         89
  11.5572         76
  11.5758         79
  11.5943         81
  11.6129         90
  11.6315         89
  11.6501         85
  11.6686         97
  11.6872         91
  11.7058         97
  11.7244         85
  11.7429         99
  11.7615         93
  11.7801         86
  11.7987        101
  11.8172         79
  11.8358         75
  11.8544         81
  11.8730         83
  11.8915         68
  11.9101         72
  11.9287         81
  11.9473         99
  11.9659         74
  11.9844         88
  12.0030         70
  12.0216         83
  12.0402         88
  12.0587         69
  12.0773         71
  12.0959         87
  12.1145         83
  12.1330         81
  12.1516         72
  12.1702        103
  12.1888         59
  12.2073         95
  12.2259         72
  12.2445         71
  12.2631         86
  12.2816         85
  12.3002         65
  12.3188         73
  12.3374         74
  12.3559         94
  12.3745         82
  12.3931         79
  12.4117         93
  12.4302         85
  12.4488         90
  12.4674         72
  12.4860        106
  12.5045         97
  12.5231         71
  12.5417         62
  12.5603         85
  12.5788         85
  12.5974         69
  12.6160         84
  12.6346         85
  12.6531         86
  12.6717         74
  12.6903         80
  12.7089         68
  12.7274         70
  12.7460         85
  12.7646         77
  12.7832         83
  12.8018         78
  12.8203         76
  12.8389         73
  12.8575         87
  12.8761         64
  12.8946         77
  12.9132         76
  12.9318         71
  12.9504         58
  12.9689         70
  12.9875         79
  13.0061         75
  13.0247         85
  13.0432         66
  13.0618         81
  13.0804         82
  13.0990         67
  13.1175         83
  13.1361         69
  13.1547         84
  13.1733         64
  13.1918         82
  13.2104         66
  13.2290         86
  13.2476         67
  13.2661         72
  13.2847         71
  13.3033         85
  13.3219         85
  13.3404         79
  13.3590         85
  13.3776         84
  13.3962         90
  13.4147         78
  13.4333         72
  13.4519         69
  13.4705         64
  13.4890         80
  13.5076         68
  13.5262         70
  13.5448         85
  13.5634         74
  13.5819         87
  13.6005         73
  13.6191         77
  13.6377         73
  13.6562         69
  13.6748         56
  13.6934         75
  13.7120         60
  13.7305         71
  13.7491         77
  13.7677         71
  13.7863         60
  13.8048         76
  13.8234         65
  13.8420         67
  13.8606         70
  13.8791         65
  13.8977         63
  13.9163         71
  13.9349         70
  13.9534         79
  13.9720         62
  13.9906         76
  14.0092         76
  14.0277         77
  14.0463         64
  14.0649         75
  14.0835         54
  14.1020         63
  14.1206         72
  14.1392         67
  14.1578         55
  14.1763         65
  14.1949         67
  14.2135         62
  14.2321         58
  14.2506         69
  14.2692         78
  14.2878         78
  14.3064         67
  14.3250         76
  14.3435         74
  14.3621         75
  14.3807         59
  14.3993         59
  14.4178         74
  14.4364         65
  14.4550         65
  14.4736         54
  14.4921         60
  14.5107         68
  14.5293         74
  14.5479         78
  14.5664         81
  14.5850         68
  14.6036         54
  14.6222         54
  14.6407         67
  14.6593         59
  14.6779         62
  14.6965         64
  14.7150         68
  14.7336         68
  14.7522         54
  14.7708         49
  14.7893         58
  14.8079         54
  14.8265         63
  14.8451         71
  14.8636         52
  14.8822         47
  14.9008         59
  14.9194         55
  14.9379         56
  14.9565         52
  14.9751         58
  14.9937         57
  15.0122         50
  15.0308         57
  15.0494         57
  15.0680         47
  15.0866         70
  15.1051         57
  15.1237         58
  15.1423         63
  15.1609         61
  15.1794         50
  15.1980         68
  15.2166         58
  15.2352         45
  15.2537         53
  15.2723         56
  15.2909         64
  15.3095         53
  15.3280         50
  15.3466         56
  15.3652         64
  15.3838         50
  15.4023         65
  15.4209         75
  15.4395         40
  15.4581         46
  15.4766         47
  15.4952         67
  15.5138         60
  15.5324         58
  15.5509         56
  15.5695         65
  15.5881         53
  15.6067         66
  15.6252         50
  15.6438         61
  15.6624         63
  15.6810         62
  15.6995         59
  15.7181         58
  15.7367         62
  15.7553         54
  15.7738         61
  15.7924         47
  15.8110         64
  15.8296         74
  15.8482         73
  15.8667         61
  15.8853         59
  15.9039         68
  15.9225         61
  15.9410         64
  15.9596         71
  15.9782         54
  15.9968         65
  16.0153         54
  16.0339         52
  16.0525         64
  16.0711         46
  16.0896         53
  16.1082         62
  16.1268         67
  16.1454         50
  16.1639         59
  16.1825         60
  16.2011         56
  16.2197         64
  16.2382         57
  16.2568         53
  16.2754         59
  16.2940         56
  16.3125         47
  16.3311         60
  16.3497         66
  16.3683         60
  16.3868         54
  16.4054         55
  16.4240         64
  16.4426         58
  16.4611         64
  16.4797         64
  16.4983         55
  16.5169         56
  16.5354         75
  16.5540         75
  16.5726         64
  16.5912         63
  16.6097         59
  16.6283         58
  16.6469         63
  16.6655         60
  16.6841         57
  16.7026         60
  16.7212         47
  16.7398         55
  16.7584         55
  16.7769         61
  16.7955         62
  16.8141         58
  16.8327         56
  16.8512         66
  16.8698         40
  16.8884         57
  16.9070         60
  16.9255         60
  16.9441         49
  16.9627         57
  16.9813         68
  16.9998         59
  17.0184         71
  17.0370         62
  17.0556         50
  17.0741         44
  17.0927         79
  17.1113         68
  17.1299         76
  17.1484         52
  17.1670         54
  17.1856         72
  17.2042         49
  17.2227         63
  17.2413         62
  17.2599         63
  17.2785         54
  17.2970         59
  17.3156         60
  17.3342         61
  17.3528         60
  17.3713         58
  17.3899         59
  17.4085         55
  17.4271         53
  17.4457         65
  17.4642         72
  17.4828         67
  17.5014         69
  17.5200         57
  17.5385         68
  17.5571         56
  17.5757         68
  17.5943         67
  17.6128         70
  17.6314         63
  17.6500         67
  17.6686         44
  17.6871         58
  17.7057         56
  17.7243         57
  17.7429         53
  17.7614         69
  17.7800         56
  17.7986         59
  17.8172         66
  17.8357         53
  17.8543         55
  17.8729         54
  17.8915         50
  17.9100         56
  17.9286         42
  17.9472         60
  17.9658         57
  17.9843         58
  18.0029         59
  18.0215         56
  18.0401         73
  18.0586         52
  18.0772         52
  18.0958         57
  18.1144         61
  18.1329         57
  18.1515         59
  18.1701         66
  18.1887         64
  18.2073         61
  18.2258         78
  18.2444         55
  18.2630         59
  18.2816         57
  18.3001         61
  18.3187         51
  18.3373         57
  18.3559         60
  18.3744         52
  18.3930         57
  18.4116         59
  18.4302         52
  18.4487         71
  18.4673         53
  18.4859         54
  18.5045         52
  18.5230         65
  18.5416         67
  18.5602         67
  18.5788         70
  18.5973         63
  18.6159         62
  18.6345         55
  18.6531         63
  18.6716         55
  18.6902         65
  18.7088         60
  18.7274         58
  18.7459         79
  18.7645         59
  18.7831         69
  18.8017         61
  18.8202         75
  18.8388         63
  18.8574         57
  18.8760         58
  18.8945         62
  18.9131         53
  18.9317         59
  18.9503         66
  18.9689         62
  18.9874         57
  19.0060         57
  19.0246         71
  19.0432         66
  19.0617         65
  19.0803         61
  19.0989         69
  19.1175         55
  19.1360         88
  19.1546         52
  19.1732         71
  19.1918         65
  19.2103         63
  19.2289         83
  19.2475         73
  19.2661         72
  19.2846         52
  19.3032         70
  19.3218         50
  19.3404         58
  19.3589         63
  19.3775         61
  19.3961         57
  19.4147         68
  19.4332         61
  19.4518         70
  19.4704         61
  19.4890         65
  19.5075         61
  19.5261         65
  19.5447         56
  19.5633         58
  19.5818         53
  19.6004         64
  19.6190         74
  19.6376         64
  19.6561         63
  19.6747         64
  19.6933         55
  19.7119         73
  19.7305         64
  19.7490         56
  19.7676         61
  19.7862         65
  19.8048         65
  19.8233         64
  19.8419         70
  19.8605         68
  19.8791         58
  19.8976         64
  19.9162         52
  19.9348         50
  19.9534         55
  19.9719         56
  19.9905         74
  20.0091         56
  20.0277         73
  20.0462         59
  20.0648         58
  20.0834         64
  20.1020         72
  20.1205         74
  20.1391         70
  20.1577         56
  20.1763         56
  20.1948         63
  20.2134         72
  20.2320         82
  20.2506         62
  20.2691         56
  20.2877         60
  20.3063         54
  20.3249         71
  20.3434         84
  20.3620         68
  20.3806         53
  20.3992         58
  20.4177         59
  20.4363         57
  20.4549         76
  20.4735         77
