; (content of file Y:\Sam\Apurva-07-20-2022\puck4\ML_20220718_50_SJD_4_LaB6-4min.raw)
_FILEVERSION = 3
_SAMPLE = ML_20220718_50_SJD_4_LaB6-4min
_+SAMPLE = 
_SITE = USA
_USER = Administrator
_GONIOMETER_CODE = 20
; Goniometer : D8 theta/2theta, stage : Unknown
_ATTACHMENTS_CODE = 0
_GONIOMETER_RADIUS = 200.5
_FIXED_DIVSLIT = 0.6
_FIXED_SAMPLESLIT = 0
_SOLLER_SLITS = 2
_FIXED_DETSLIT = 9.55
_MONOCHROMATOR = 0
; Incident beam monochromator : None
_SOLLER_SLITS_2 = N
_THIN_FILM = N
_BETA_FILTER = Y
_FIXED_ANTISLIT = 5.89
_ANALYZER_CODE = 0
; Received beam analyzer : None
_DATEMEASURED = "26-Jul-2022 14:00:47"
_WL_UNIT = A
_WL1 = 1.5406
_WL2 = 1.54439
_WL3 = 1.39222
_WLRATIO = 0.5
_ANODE = Cu
_V4_INF_CREATOR = XRDWizard
_V4_INF_CREATOR_VERSION = V2.9.0.22
_V4_INF_WIZARD_VERSION = V2.9.0.22
_V4_INF_WIZARD_ADDINS = V2.9.0.22
_V4_INF_WIZARD_DOCTYPE = XRD
_V4_INF_OSUSER = McQueenLab
_V4_INF_USER = Administrator
_V4_INF_SITE = USA
_V4_INF_SAMPLEID = ML_20220718_50_SJD_4_LaB6-4min

; Data for range 1
_DRIVE = COUPLED
_STEPTIME = 11.28
_STEPSIZE = 0.0185756
_STEPMODE = C
_START = 5
_THETA = 2.5
_2THETA = 5
_KHI = 0
_PHI = 0
_X = 0
_Y = 0
_Z = 0
_DETECTOR = 5
; Detector type : Unknown
_DETECTORSLIT = unkn
_AUX1 = 0
_AUX2 = 0
_AUX3 = 0
_TIMESTARTED = 15
_TEMP_RATE = -1
_TEMP_DELAY = -1
_KV = 40
_MA = 40
_RANGE_WL = 1.5406
_3DPLANE = 0
_V4_ADDITIONALDETECTOR = 257
_V4_PSD2THETA = 3.3663
_V4_PSDCHANNEL1 = 0
_V4_PSDAPERTURE = 12.68
_V4_PSDTYPE = 5
_V4_PSDFIXED = 0
_V4_COUNTERS_MASK = 4096
_V4_DRIVES_MASK = 0
_V4_ENCODERS_MASK = 0
_2THETACOUNTS = 1
; 2THETA  PSD
   5.0000        248
   5.0186        258
   5.0372        294
   5.0557        274
   5.0743        253
   5.0929        242
   5.1115        250
   5.1300        230
   5.1486        230
   5.1672        204
   5.1858        226
   5.2043        246
   5.2229        222
   5.2415        236
   5.2601        258
   5.2786        223
   5.2972        226
   5.3158        249
   5.3344        241
   5.3529        219
   5.3715        236
   5.3901        216
   5.4087        217
   5.4272        256
   5.4458        222
   5.4644        208
   5.4830        214
   5.5015        223
   5.5201        224
   5.5387        237
   5.5573        210
   5.5758        215
   5.5944        221
   5.6130        195
   5.6316        205
   5.6501        219
   5.6687        218
   5.6873        228
   5.7059        193
   5.7244        224
   5.7430        215
   5.7616        188
   5.7802        207
   5.7988        211
   5.8173        206
   5.8359        213
   5.8545        188
   5.8731        203
   5.8916        222
   5.9102        213
   5.9288        193
   5.9474        201
   5.9659        205
   5.9845        189
   6.0031        160
   6.0217        199
   6.0402        205
   6.0588        213
   6.0774        199
   6.0960        206
   6.1145        191
   6.1331        191
   6.1517        161
   6.1703        192
   6.1888        181
   6.2074        189
   6.2260        167
   6.2446        207
   6.2631        211
   6.2817        169
   6.3003        182
   6.3189        185
   6.3374        180
   6.3560        188
   6.3746        193
   6.3932        180
   6.4117        194
   6.4303        171
   6.4489        175
   6.4675        183
   6.4860        174
   6.5046        185
   6.5232        196
   6.5418        188
   6.5604        178
   6.5789        196
   6.5975        189
   6.6161        171
   6.6347        178
   6.6532        177
   6.6718        153
   6.6904        193
   6.7090        164
   6.7275        183
   6.7461        163
   6.7647        139
   6.7833        162
   6.8018        197
   6.8204        170
   6.8390        167
   6.8576        173
   6.8761        155
   6.8947        159
   6.9133        187
   6.9319        176
   6.9504        156
   6.9690        178
   6.9876        163
   7.0062        158
   7.0247        166
   7.0433        186
   7.0619        158
   7.0805        163
   7.0990        150
   7.1176        166
   7.1362        149
   7.1548        147
   7.1733        146
   7.1919        185
   7.2105        157
   7.2291        164
   7.2476        180
   7.2662        147
   7.2848        181
   7.3034        142
   7.3220        166
   7.3405        164
   7.3591        155
   7.3777        158
   7.3963        165
   7.4148        172
   7.4334        145
   7.4520        169
   7.4706        191
   7.4891        164
   7.5077        153
   7.5263        158
   7.5449        164
   7.5634        151
   7.5820        156
   7.6006        174
   7.6192        171
   7.6377        159
   7.6563        180
   7.6749        195
   7.6935        168
   7.7120        172
   7.7306        171
   7.7492        180
   7.7678        192
   7.7863        190
   7.8049        197
   7.8235        189
   7.8421        157
   7.8606        174
   7.8792        192
   7.8978        192
   7.9164        169
   7.9349        177
   7.9535        163
   7.9721        203
   7.9907        185
   8.0092        167
   8.0278        189
   8.0464        173
   8.0650        184
   8.0835        205
   8.1021        197
   8.1207        174
   8.1393        174
   8.1579        195
   8.1764        193
   8.1950        222
   8.2136        166
   8.2322        209
   8.2507        191
   8.2693        193
   8.2879        189
   8.3065        193
   8.3250        176
   8.3436        187
   8.3622        214
   8.3808        199
   8.3993        186
   8.4179        211
   8.4365        176
   8.4551        198
   8.4736        204
   8.4922        215
   8.5108        192
   8.5294        195
   8.5479        189
   8.5665        194
   8.5851        191
   8.6037        208
   8.6222        196
   8.6408        182
   8.6594        232
   8.6780        197
   8.6965        186
   8.7151        199
   8.7337        198
   8.7523        207
   8.7708        183
   8.7894        236
   8.8080        208
   8.8266        204
   8.8451        196
   8.8637        220
   8.8823        194
   8.9009        204
   8.9195        176
   8.9380        219
   8.9566        218
   8.9752        217
   8.9938        213
   9.0123        196
   9.0309        222
   9.0495        214
   9.0681        194
   9.0866        222
   9.1052        204
   9.1238        249
   9.1424        216
   9.1609        227
   9.1795        230
   9.1981        235
   9.2167        234
   9.2352        198
   9.2538        233
   9.2724        222
   9.2910        214
   9.3095        228
   9.3281        198
   9.3467        215
   9.3653        199
   9.3838        240
   9.4024        210
   9.4210        216
   9.4396        210
   9.4581        232
   9.4767        224
   9.4953        218
   9.5139        223
   9.5324        244
   9.5510        224
   9.5696        233
   9.5882        208
   9.6067        203
   9.6253        234
   9.6439        239
   9.6625        245
   9.6811        209
   9.6996        243
   9.7182        234
   9.7368        222
   9.7554        225
   9.7739        242
   9.7925        235
   9.8111        233
   9.8297        243
   9.8482        236
   9.8668        255
   9.8854        247
   9.9040        217
   9.9225        242
   9.9411        259
   9.9597        223
   9.9783        235
   9.9968        259
  10.0154        233
  10.0340        251
  10.0526        248
  10.0711        251
  10.0897        271
  10.1083        240
  10.1269        244
  10.1454        269
  10.1640        259
  10.1826        250
  10.2012        213
  10.2197        247
  10.2383        249
  10.2569        267
  10.2755        237
  10.2940        226
  10.3126        249
  10.3312        263
  10.3498        206
  10.3683        231
  10.3869        215
  10.4055        222
  10.4241        220
  10.4427        265
  10.4612        294
  10.4798        243
  10.4984        246
  10.5170        233
  10.5355        253
  10.5541        235
  10.5727        202
  10.5913        265
  10.6098        239
  10.6284        226
  10.6470        258
  10.6656        226
  10.6841        218
  10.7027        236
  10.7213        243
  10.7399        240
  10.7584        251
  10.7770        269
  10.7956        271
  10.8142        261
  10.8327        241
  10.8513        230
  10.8699        246
  10.8885        208
  10.9070        253
  10.9256        246
  10.9442        246
  10.9628        242
  10.9813        254
  10.9999        208
  11.0185        232
  11.0371        257
  11.0556        219
  11.0742        227
  11.0928        235
  11.1114        240
  11.1299        262
  11.1485        235
  11.1671        240
  11.1857        231
  11.2043        232
  11.2228        245
  11.2414        224
  11.2600        252
  11.2786        257
  11.2971        227
  11.3157        225
  11.3343        243
  11.3529        240
  11.3714        252
  11.3900        222
  11.4086        235
  11.4272        232
  11.4457        237
  11.4643        238
  11.4829        232
  11.5015        224
  11.5200        214
  11.5386        249
  11.5572        234
  11.5758        256
  11.5943        233
  11.6129        246
  11.6315        251
  11.6501        226
  11.6686        242
  11.6872        213
  11.7058        231
  11.7244        250
  11.7429        235
  11.7615        217
  11.7801        224
  11.7987        208
  11.8172        244
  11.8358        258
  11.8544        202
  11.8730        231
  11.8915        228
  11.9101        243
  11.9287        249
  11.9473        201
  11.9659        245
  11.9844        227
  12.0030        223
  12.0216        214
  12.0402        200
  12.0587        234
  12.0773        239
  12.0959        241
  12.1145        211
  12.1330        220
  12.1516        224
  12.1702        211
  12.1888        209
  12.2073        227
  12.2259        197
  12.2445        210
  12.2631        215
  12.2816        240
  12.3002        227
  12.3188        235
  12.3374        200
  12.3559        230
  12.3745        238
  12.3931        237
  12.4117        185
  12.4302        232
  12.4488        229
  12.4674        208
  12.4860        244
  12.5045        242
  12.5231        201
  12.5417        237
  12.5603        227
  12.5788        214
  12.5974        209
  12.6160        228
  12.6346        214
  12.6531        216
  12.6717        233
  12.6903        230
  12.7089        226
  12.7274        200
  12.7460        230
  12.7646        206
  12.7832        204
  12.8018        228
  12.8203        203
  12.8389        218
  12.8575        197
  12.8761        217
  12.8946        188
  12.9132        230
  12.9318        203
  12.9504        215
  12.9689        213
  12.9875        212
  13.0061        206
  13.0247        203
  13.0432        207
  13.0618        193
  13.0804        205
  13.0990        205
  13.1175        189
  13.1361        178
  13.1547        212
  13.1733        199
  13.1918        215
  13.2104        223
  13.2290        208
  13.2476        178
  13.2661        181
  13.2847        215
  13.3033        191
  13.3219        199
  13.3404        201
  13.3590        181
  13.3776        211
  13.3962        197
  13.4147        202
  13.4333        185
  13.4519        200
  13.4705        173
  13.4890        207
  13.5076        199
  13.5262        183
  13.5448        191
  13.5634        188
  13.5819        192
  13.6005        187
  13.6191        201
  13.6377        200
  13.6562        179
  13.6748        180
  13.6934        166
  13.7120        182
  13.7305        182
  13.7491        195
  13.7677        194
  13.7863        205
  13.8048        192
  13.8234        197
  13.8420        190
  13.8606        191
  13.8791        175
  13.8977        176
  13.9163        166
  13.9349        186
  13.9534        162
  13.9720        205
  13.9906        171
  14.0092        174
  14.0277        174
  14.0463        183
  14.0649        186
  14.0835        175
  14.1020        167
  14.1206        186
  14.1392        176
  14.1578        183
  14.1763        179
  14.1949        185
  14.2135        186
  14.2321        178
  14.2506        177
  14.2692        173
  14.2878        191
  14.3064        186
  14.3250        161
  14.3435        190
  14.3621        196
  14.3807        178
  14.3993        188
  14.4178        161
  14.4364        155
  14.4550        174
  14.4736        188
  14.4921        205
  14.5107        150
  14.5293        157
  14.5479        190
  14.5664        164
  14.5850        182
  14.6036        171
  14.6222        158
  14.6407        161
  14.6593        179
  14.6779        177
  14.6965        149
  14.7150        159
  14.7336        176
  14.7522        170
  14.7708        177
  14.7893        163
  14.8079        146
  14.8265        170
  14.8451        167
  14.8636        151
  14.8822        190
  14.9008        155
  14.9194        170
  14.9379        177
  14.9565        161
  14.9751        152
  14.9937        186
  15.0122        176
  15.0308        173
  15.0494        172
  15.0680        155
  15.0866        165
  15.1051        165
  15.1237        164
  15.1423        155
  15.1609        161
  15.1794        199
  15.1980        143
  15.2166        169
  15.2352        170
  15.2537        143
  15.2723        161
  15.2909        170
  15.3095        167
  15.3280        177
  15.3466        170
  15.3652        174
  15.3838        159
  15.4023        183
  15.4209        162
  15.4395        202
  15.4581        142
  15.4766        175
  15.4952        163
  15.5138        154
  15.5324        171
  15.5509        165
  15.5695        165
  15.5881        167
  15.6067        152
  15.6252        170
  15.6438        178
  15.6624        150
  15.6810        145
  15.6995        158
  15.7181        178
  15.7367        172
  15.7553        167
  15.7738        176
  15.7924        173
  15.8110        145
  15.8296        156
  15.8482        164
  15.8667        157
  15.8853        147
  15.9039        149
  15.9225        152
  15.9410        185
  15.9596        176
  15.9782        195
  15.9968        165
  16.0153        170
  16.0339        174
  16.0525        158
  16.0711        203
  16.0896        151
  16.1082        167
  16.1268        176
  16.1454        162
  16.1639        177
  16.1825        161
  16.2011        169
  16.2197        179
  16.2382        163
  16.2568        157
  16.2754        147
  16.2940        167
  16.3125        134
  16.3311        153
  16.3497        151
  16.3683        171
  16.3868        162
  16.4054        177
  16.4240        162
  16.4426        147
  16.4611        163
  16.4797        147
  16.4983        145
  16.5169        155
  16.5354        168
  16.5540        150
  16.5726        158
  16.5912        161
  16.6097        161
  16.6283        168
  16.6469        174
  16.6655        150
  16.6841        162
  16.7026        162
  16.7212        177
  16.7398        174
  16.7584        173
  16.7769        144
  16.7955        158
  16.8141        153
  16.8327        152
  16.8512        160
  16.8698        147
  16.8884        162
  16.9070        158
  16.9255        166
  16.9441        161
  16.9627        158
  16.9813        166
  16.9998        165
  17.0184        152
  17.0370        144
  17.0556        176
  17.0741        176
  17.0927        167
  17.1113        145
  17.1299        181
  17.1484        151
  17.1670        178
  17.1856        194
  17.2042        151
  17.2227        162
  17.2413        179
  17.2599        176
  17.2785        158
  17.2970        148
  17.3156        158
  17.3342        172
  17.3528        170
  17.3713        136
  17.3899        143
  17.4085        168
  17.4271        159
  17.4457        159
  17.4642        153
  17.4828        139
  17.5014        179
  17.5200        156
  17.5385        153
  17.5571        157
  17.5757        155
  17.5943        169
  17.6128        146
  17.6314        159
  17.6500        135
  17.6686        143
  17.6871        168
  17.7057        163
  17.7243        167
  17.7429        165
  17.7614        164
  17.7800        178
  17.7986        162
  17.8172        154
  17.8357        178
  17.8543        162
  17.8729        169
  17.8915        165
  17.9100        160
  17.9286        156
  17.9472        147
  17.9658        151
  17.9843        179
  18.0029        181
  18.0215        174
  18.0401        157
  18.0586        174
  18.0772        173
  18.0958        161
  18.1144        158
  18.1329        179
  18.1515        168
  18.1701        177
  18.1887        169
  18.2073        151
  18.2258        152
  18.2444        142
  18.2630        180
  18.2816        173
  18.3001        176
  18.3187        162
  18.3373        145
  18.3559        154
  18.3744        171
  18.3930        182
  18.4116        160
  18.4302        151
  18.4487        165
  18.4673        147
  18.4859        165
  18.5045        176
  18.5230        155
  18.5416        161
  18.5602        185
  18.5788        149
  18.5973        176
  18.6159        172
  18.6345        143
  18.6531        169
  18.6716        154
  18.6902        167
  18.7088        164
  18.7274        180
  18.7459        173
  18.7645        167
  18.7831        163
  18.8017        151
  18.8202        175
  18.8388        136
  18.8574        148
  18.8760        193
  18.8945        149
  18.9131        180
  18.9317        166
  18.9503        163
  18.9689        187
  18.9874        179
  19.0060        171
  19.0246        172
  19.0432        177
  19.0617        183
  19.0803        150
  19.0989        187
  19.1175        175
  19.1360        173
  19.1546        173
  19.1732        197
  19.1918        165
  19.2103        159
  19.2289        180
  19.2475        161
  19.2661        173
  19.2846        169
  19.3032        176
  19.3218        184
  19.3404        162
  19.3589        167
  19.3775        171
  19.3961        167
  19.4147        164
  19.4332        168
  19.4518        170
  19.4704        162
  19.4890        178
  19.5075        166
  19.5261        183
  19.5447        157
  19.5633        160
  19.5818        158
  19.6004        179
  19.6190        173
  19.6376        151
  19.6561        150
  19.6747        195
  19.6933        176
  19.7119        165
  19.7305        183
  19.7490        171
  19.7676        180
  19.7862        186
  19.8048        174
  19.8233        184
  19.8419        158
  19.8605        193
  19.8791        155
  19.8976        180
  19.9162        182
  19.9348        196
  19.9534        169
  19.9719        183
  19.9905        196
  20.0091        191
  20.0277        182
  20.0462        168
  20.0648        163
  20.0834        175
  20.1020        171
  20.1205        184
  20.1391        161
  20.1577        167
  20.1763        175
  20.1948        162
  20.2134        159
  20.2320        184
  20.2506        175
  20.2691        155
  20.2877        189
  20.3063        179
  20.3249        175
  20.3434        194
  20.3620        173
  20.3806        212
  20.3992        182
  20.4177        177
  20.4363        187
  20.4549        169
  20.4735        164
