; (content of file Y:\Sam\Apurva-07-20-2022\puck4\ML_20220718_34_SJD_0_LaB6-2min.raw)
_FILEVERSION = 3
_SAMPLE = ML_20220718_34_SJD_0_LaB6-2min
_+SAMPLE = 
_SITE = USA
_USER = Administrator
_GONIOMETER_CODE = 20
; Goniometer : D8 theta/2theta, stage : Unknown
_ATTACHMENTS_CODE = 0
_GONIOMETER_RADIUS = 200.5
_FIXED_DIVSLIT = 0.6
_FIXED_SAMPLESLIT = 0
_SOLLER_SLITS = 2
_FIXED_DETSLIT = 9.55
_MONOCHROMATOR = 0
; Incident beam monochromator : None
_SOLLER_SLITS_2 = N
_THIN_FILM = N
_BETA_FILTER = Y
_FIXED_ANTISLIT = 5.89
_ANALYZER_CODE = 0
; Received beam analyzer : None
_DATEMEASURED = "26-Jul-2022 09:04:03"
_WL_UNIT = A
_WL1 = 1.5406
_WL2 = 1.54439
_WL3 = 1.39222
_WLRATIO = 0.5
_ANODE = Cu
_V4_INF_CREATOR = XRDWizard
_V4_INF_CREATOR_VERSION = V2.9.0.22
_V4_INF_WIZARD_VERSION = V2.9.0.22
_V4_INF_WIZARD_ADDINS = V2.9.0.22
_V4_INF_WIZARD_DOCTYPE = XRD
_V4_INF_OSUSER = McQueenLab
_V4_INF_USER = Administrator
_V4_INF_SITE = USA
_V4_INF_SAMPLEID = ML_20220718_34_SJD_0_LaB6-2min

; Data for range 1
_DRIVE = COUPLED
_STEPTIME = 5.64
_STEPSIZE = 0.0185756
_STEPMODE = C
_START = 5
_THETA = 2.5
_2THETA = 5
_KHI = 0
_PHI = 0
_X = 0
_Y = 0
_Z = 0
_DETECTOR = 5
; Detector type : Unknown
_DETECTORSLIT = unkn
_AUX1 = 0
_AUX2 = 0
_AUX3 = 0
_TIMESTARTED = 15
_TEMP_RATE = -1
_TEMP_DELAY = -1
_KV = 40
_MA = 40
_RANGE_WL = 1.5406
_3DPLANE = 0
_V4_ADDITIONALDETECTOR = 257
_V4_PSD2THETA = 3.4228
_V4_PSDCHANNEL1 = 0
_V4_PSDAPERTURE = 12.68
_V4_PSDTYPE = 5
_V4_PSDFIXED = 0
_V4_COUNTERS_MASK = 4096
_V4_DRIVES_MASK = 0
_V4_ENCODERS_MASK = 0
_2THETACOUNTS = 1
; 2THETA  PSD
   5.0000        124
   5.0186        109
   5.0372        141
   5.0557        123
   5.0743        123
   5.0929        111
   5.1115        128
   5.1300        126
   5.1486        131
   5.1672        125
   5.1858        128
   5.2043        133
   5.2229        124
   5.2415        109
   5.2601        130
   5.2786        113
   5.2972        104
   5.3158        129
   5.3344        118
   5.3529        114
   5.3715        101
   5.3901        109
   5.4087         98
   5.4272        108
   5.4458        102
   5.4644        121
   5.4830        122
   5.5015        119
   5.5201        130
   5.5387        101
   5.5573        108
   5.5758        103
   5.5944        118
   5.6130        114
   5.6316         96
   5.6501        116
   5.6687        105
   5.6873         85
   5.7059        108
   5.7244         92
   5.7430        111
   5.7616        110
   5.7802        116
   5.7988        116
   5.8173         95
   5.8359        114
   5.8545        121
   5.8731         93
   5.8916         88
   5.9102         82
   5.9288         96
   5.9474        107
   5.9659         92
   5.9845         99
   6.0031         96
   6.0217         95
   6.0402         95
   6.0588         84
   6.0774         95
   6.0960        100
   6.1145         90
   6.1331         91
   6.1517         94
   6.1703         84
   6.1888         89
   6.2074        106
   6.2260         84
   6.2446         90
   6.2631         88
   6.2817         98
   6.3003         78
   6.3189         99
   6.3374         90
   6.3560         71
   6.3746        106
   6.3932        102
   6.4117         78
   6.4303         82
   6.4489         89
   6.4675         80
   6.4860         92
   6.5046         94
   6.5232         84
   6.5418         89
   6.5604         94
   6.5789         76
   6.5975         86
   6.6161         79
   6.6347         83
   6.6532         68
   6.6718         88
   6.6904         83
   6.7090         94
   6.7275         81
   6.7461         85
   6.7647         74
   6.7833         91
   6.8018         90
   6.8204         82
   6.8390         58
   6.8576         97
   6.8761         87
   6.8947         95
   6.9133         90
   6.9319         78
   6.9504         88
   6.9690         71
   6.9876         76
   7.0062         72
   7.0247         86
   7.0433         94
   7.0619         81
   7.0805         98
   7.0990         72
   7.1176         91
   7.1362         80
   7.1548         88
   7.1733         91
   7.1919         66
   7.2105         77
   7.2291         81
   7.2476         80
   7.2662         84
   7.2848         86
   7.3034         73
   7.3220         64
   7.3405         69
   7.3591         76
   7.3777         69
   7.3963         91
   7.4148         92
   7.4334         76
   7.4520         93
   7.4706         88
   7.4891         88
   7.5077         95
   7.5263         84
   7.5449         76
   7.5634        101
   7.5820         87
   7.6006         94
   7.6192         88
   7.6377         72
   7.6563        105
   7.6749         82
   7.6935         87
   7.7120         86
   7.7306         81
   7.7492        104
   7.7678         77
   7.7863         90
   7.8049         81
   7.8235         79
   7.8421         81
   7.8606         86
   7.8792         97
   7.8978         91
   7.9164         82
   7.9349         90
   7.9535        103
   7.9721         86
   7.9907         89
   8.0092         90
   8.0278        106
   8.0464        108
   8.0650        103
   8.0835        120
   8.1021         97
   8.1207         89
   8.1393         75
   8.1579         94
   8.1764        103
   8.1950         90
   8.2136         86
   8.2322        107
   8.2507        107
   8.2693        106
   8.2879         93
   8.3065        110
   8.3250        108
   8.3436         73
   8.3622        122
   8.3808         94
   8.3993         88
   8.4179        101
   8.4365        122
   8.4551         86
   8.4736         93
   8.4922         94
   8.5108        101
   8.5294         88
   8.5479         97
   8.5665         98
   8.5851        112
   8.6037        116
   8.6222        105
   8.6408         98
   8.6594         96
   8.6780         92
   8.6965         98
   8.7151        108
   8.7337         88
   8.7523         97
   8.7708        105
   8.7894        106
   8.8080         91
   8.8266        113
   8.8451        111
   8.8637         77
   8.8823        104
   8.9009        102
   8.9195        125
   8.9380        112
   8.9566        113
   8.9752         99
   8.9938         99
   9.0123         98
   9.0309        113
   9.0495         85
   9.0681         94
   9.0866         94
   9.1052        108
   9.1238        104
   9.1424         97
   9.1609         99
   9.1795        109
   9.1981        110
   9.2167        110
   9.2352        124
   9.2538        109
   9.2724        120
   9.2910        113
   9.3095        130
   9.3281        105
   9.3467        114
   9.3653         86
   9.3838         97
   9.4024        112
   9.4210        101
   9.4396        122
   9.4581        119
   9.4767         92
   9.4953        114
   9.5139         99
   9.5324        120
   9.5510        119
   9.5696        112
   9.5882        109
   9.6067        113
   9.6253        115
   9.6439        111
   9.6625         97
   9.6811        104
   9.6996        121
   9.7182         89
   9.7368        114
   9.7554        115
   9.7739        116
   9.7925        111
   9.8111        120
   9.8297        101
   9.8482        119
   9.8668        112
   9.8854        104
   9.9040        131
   9.9225        118
   9.9411        113
   9.9597        128
   9.9783        109
   9.9968        142
  10.0154         98
  10.0340        117
  10.0526        109
  10.0711        139
  10.0897        109
  10.1083        126
  10.1269        124
  10.1454        119
  10.1640        117
  10.1826        120
  10.2012        116
  10.2197        125
  10.2383        118
  10.2569        108
  10.2755        113
  10.2940        109
  10.3126        104
  10.3312         93
  10.3498        142
  10.3683        107
  10.3869        117
  10.4055        121
  10.4241         96
  10.4427         99
  10.4612        105
  10.4798        131
  10.4984        117
  10.5170        129
  10.5355        126
  10.5541        134
  10.5727        138
  10.5913        130
  10.6098        109
  10.6284        112
  10.6470        111
  10.6656        137
  10.6841        140
  10.7027        146
  10.7213        116
  10.7399        114
  10.7584        120
  10.7770        120
  10.7956        135
  10.8142        119
  10.8327        123
  10.8513        118
  10.8699        128
  10.8885        106
  10.9070        101
  10.9256        117
  10.9442        119
  10.9628        115
  10.9813        106
  10.9999        119
  11.0185        122
  11.0371        112
  11.0556        112
  11.0742        126
  11.0928        123
  11.1114        121
  11.1299        124
  11.1485         94
  11.1671        113
  11.1857        109
  11.2043        129
  11.2228        114
  11.2414        111
  11.2600        101
  11.2786        127
  11.2971         97
  11.3157        110
  11.3343        105
  11.3529        112
  11.3714        125
  11.3900        124
  11.4086        122
  11.4272        116
  11.4457        122
  11.4643        125
  11.4829        142
  11.5015        129
  11.5200        141
  11.5386        120
  11.5572        119
  11.5758        138
  11.5943        128
  11.6129        102
  11.6315        115
  11.6501        132
  11.6686        118
  11.6872        103
  11.7058        116
  11.7244        109
  11.7429        114
  11.7615        121
  11.7801        110
  11.7987        117
  11.8172        100
  11.8358        119
  11.8544        114
  11.8730        107
  11.8915        122
  11.9101        117
  11.9287        106
  11.9473        117
  11.9659        101
  11.9844        103
  12.0030        126
  12.0216        104
  12.0402        102
  12.0587        125
  12.0773        125
  12.0959        125
  12.1145         92
  12.1330        117
  12.1516        122
  12.1702        111
  12.1888        125
  12.2073        103
  12.2259        108
  12.2445        115
  12.2631        111
  12.2816        115
  12.3002        102
  12.3188        114
  12.3374        100
  12.3559        130
  12.3745        103
  12.3931         99
  12.4117         99
  12.4302        105
  12.4488         91
  12.4674        111
  12.4860        103
  12.5045         99
  12.5231        109
  12.5417        100
  12.5603        122
  12.5788        121
  12.5974        104
  12.6160        110
  12.6346         96
  12.6531         90
  12.6717         93
  12.6903        102
  12.7089        113
  12.7274        109
  12.7460        110
  12.7646         97
  12.7832         92
  12.8018        119
  12.8203         96
  12.8389         91
  12.8575         91
  12.8761        101
  12.8946        104
  12.9132        123
  12.9318        106
  12.9504        105
  12.9689         89
  12.9875        101
  13.0061         90
  13.0247        102
  13.0432         97
  13.0618        102
  13.0804         99
  13.0990         85
  13.1175        103
  13.1361         98
  13.1547        110
  13.1733        109
  13.1918        111
  13.2104        112
  13.2290         92
  13.2476         84
  13.2661        111
  13.2847         96
  13.3033         92
  13.3219         98
  13.3404         86
  13.3590        111
  13.3776         97
  13.3962         95
  13.4147        104
  13.4333         86
  13.4519        106
  13.4705        105
  13.4890        103
  13.5076        100
  13.5262         87
  13.5448         95
  13.5634         79
  13.5819         85
  13.6005         98
  13.6191        107
  13.6377         96
  13.6562        112
  13.6748        102
  13.6934        110
  13.7120        104
  13.7305         95
  13.7491        101
  13.7677        101
  13.7863        101
  13.8048         99
  13.8234        109
  13.8420         88
  13.8606         97
  13.8791         76
  13.8977         84
  13.9163        103
  13.9349         86
  13.9534         91
  13.9720         82
  13.9906         78
  14.0092         81
  14.0277        110
  14.0463        103
  14.0649        103
  14.0835         87
  14.1020         93
  14.1206         96
  14.1392         85
  14.1578        106
  14.1763         84
  14.1949         75
  14.2135         79
  14.2321         92
  14.2506         87
  14.2692         96
  14.2878         84
  14.3064         70
  14.3250         81
  14.3435         76
  14.3621         67
  14.3807         96
  14.3993         92
  14.4178         95
  14.4364         79
  14.4550         86
  14.4736        103
  14.4921         98
  14.5107         80
  14.5293         83
  14.5479         68
  14.5664         97
  14.5850         87
  14.6036         98
  14.6222         84
  14.6407         66
  14.6593         82
  14.6779        104
  14.6965         78
  14.7150         77
  14.7336         92
  14.7522         91
  14.7708         81
  14.7893         74
  14.8079         88
  14.8265         77
  14.8451         94
  14.8636         73
  14.8822         83
  14.9008         79
  14.9194         87
  14.9379         82
  14.9565         96
  14.9751         81
  14.9937         90
  15.0122         99
  15.0308         69
  15.0494         90
  15.0680         72
  15.0866         72
  15.1051         93
  15.1237         87
  15.1423         84
  15.1609         89
  15.1794         99
  15.1980        107
  15.2166         97
  15.2352         85
  15.2537         92
  15.2723         85
  15.2909         89
  15.3095         83
  15.3280         77
  15.3466         94
  15.3652         76
  15.3838        100
  15.4023         80
  15.4209         83
  15.4395         87
  15.4581         76
  15.4766         79
  15.4952         71
  15.5138         99
  15.5324         79
  15.5509         72
  15.5695         67
  15.5881         84
  15.6067         93
  15.6252        101
  15.6438         86
  15.6624         85
  15.6810         89
  15.6995         86
  15.7181         79
  15.7367         79
  15.7553         69
  15.7738         80
  15.7924         93
  15.8110         78
  15.8296         86
  15.8482         82
  15.8667         81
  15.8853         85
  15.9039         99
  15.9225         90
  15.9410         84
  15.9596         71
  15.9782         80
  15.9968         72
  16.0153         80
  16.0339         78
  16.0525         93
  16.0711         68
  16.0896         92
  16.1082         88
  16.1268         95
  16.1454         94
  16.1639         92
  16.1825         75
  16.2011        102
  16.2197         80
  16.2382         75
  16.2568         86
  16.2754         62
  16.2940         72
  16.3125         86
  16.3311         77
  16.3497         87
  16.3683         77
  16.3868         86
  16.4054         93
  16.4240         81
  16.4426         75
  16.4611         88
  16.4797         63
  16.4983         77
  16.5169         77
  16.5354         69
  16.5540         79
  16.5726         72
  16.5912         67
  16.6097         69
  16.6283         83
  16.6469         86
  16.6655         72
  16.6841         79
  16.7026         86
  16.7212         75
  16.7398         80
  16.7584         73
  16.7769         80
  16.7955         75
  16.8141         69
  16.8327         92
  16.8512         77
  16.8698         69
  16.8884         69
  16.9070         70
  16.9255         83
  16.9441         87
  16.9627         86
  16.9813         82
  16.9998         82
  17.0184         76
  17.0370         74
  17.0556         86
  17.0741         89
  17.0927         96
  17.1113         88
  17.1299         76
  17.1484         74
  17.1670         82
  17.1856         90
  17.2042         80
  17.2227         84
  17.2413         98
  17.2599         88
  17.2785         77
  17.2970         76
  17.3156         73
  17.3342         73
  17.3528         91
  17.3713         87
  17.3899         89
  17.4085         68
  17.4271         86
  17.4457         63
  17.4642         85
  17.4828         78
  17.5014         88
  17.5200         74
  17.5385         89
  17.5571         86
  17.5757         64
  17.5943         81
  17.6128         72
  17.6314         88
  17.6500         85
  17.6686         88
  17.6871         90
  17.7057         72
  17.7243         90
  17.7429         82
  17.7614         80
  17.7800         86
  17.7986         78
  17.8172         69
  17.8357         63
  17.8543         73
  17.8729         83
  17.8915         90
  17.9100         91
  17.9286         94
  17.9472         85
  17.9658         96
  17.9843         89
  18.0029         87
  18.0215         81
  18.0401         84
  18.0586         72
  18.0772         78
  18.0958         78
  18.1144         73
  18.1329         92
  18.1515         88
  18.1701         87
  18.1887         57
  18.2073         88
  18.2258         98
  18.2444         88
  18.2630         85
  18.2816         84
  18.3001         80
  18.3187         86
  18.3373         95
  18.3559         69
  18.3744         94
  18.3930         76
  18.4116         69
  18.4302         88
  18.4487         86
  18.4673         77
  18.4859         70
  18.5045         72
  18.5230         74
  18.5416         84
  18.5602         80
  18.5788         92
  18.5973         81
  18.6159         81
  18.6345         83
  18.6531         85
  18.6716         94
  18.6902         73
  18.7088         83
  18.7274         69
  18.7459         88
  18.7645         83
  18.7831         91
  18.8017         67
  18.8202         82
  18.8388         78
  18.8574         91
  18.8760        103
  18.8945         78
  18.9131         66
  18.9317         79
  18.9503         93
  18.9689        103
  18.9874         88
  19.0060         91
  19.0246         90
  19.0432         79
  19.0617         87
  19.0803         59
  19.0989         77
  19.1175         93
  19.1360         83
  19.1546         76
  19.1732         82
  19.1918         74
  19.2103         91
  19.2289         93
  19.2475         78
  19.2661         78
  19.2846         95
  19.3032         69
  19.3218         93
  19.3404         89
  19.3589         83
  19.3775         86
  19.3961         96
  19.4147         85
  19.4332         72
  19.4518         95
  19.4704         94
  19.4890         83
  19.5075         82
  19.5261         82
  19.5447        109
  19.5633         79
  19.5818         66
  19.6004         95
  19.6190         86
  19.6376         79
  19.6561         71
  19.6747         84
  19.6933         70
  19.7119         89
  19.7305         80
  19.7490         90
  19.7676         86
  19.7862         81
  19.8048         89
  19.8233         79
  19.8419         93
  19.8605         74
  19.8791        103
  19.8976         88
  19.9162         90
  19.9348         96
  19.9534         87
  19.9719         74
  19.9905        112
  20.0091         98
  20.0277         91
  20.0462         81
  20.0648        100
  20.0834         84
  20.1020         80
  20.1205         93
  20.1391         93
  20.1577         64
  20.1763         88
  20.1948        108
  20.2134        108
  20.2320         91
  20.2506         85
  20.2691         89
  20.2877         98
  20.3063         90
  20.3249         83
  20.3434         95
  20.3620         87
  20.3806         99
  20.3992         78
  20.4177         98
  20.4363         83
  20.4549         97
  20.4735         89
