; (content of file Y:\Sam\Apurva-07-20-2022\puck4\ML_20220718_45_SJD_4_LaB6-2min.raw)
_FILEVERSION = 3
_SAMPLE = ML_20220718_45_SJD_4_LaB6-2min
_+SAMPLE = 
_SITE = USA
_USER = Administrator
_GONIOMETER_CODE = 20
; Goniometer : D8 theta/2theta, stage : Unknown
_ATTACHMENTS_CODE = 0
_GONIOMETER_RADIUS = 200.5
_FIXED_DIVSLIT = 0.6
_FIXED_SAMPLESLIT = 0
_SOLLER_SLITS = 2
_FIXED_DETSLIT = 9.55
_MONOCHROMATOR = 0
; Incident beam monochromator : None
_SOLLER_SLITS_2 = N
_THIN_FILM = N
_BETA_FILTER = Y
_FIXED_ANTISLIT = 5.89
_ANALYZER_CODE = 0
; Received beam analyzer : None
_DATEMEASURED = "26-Jul-2022 12:15:41"
_WL_UNIT = A
_WL1 = 1.5406
_WL2 = 1.54439
_WL3 = 1.39222
_WLRATIO = 0.5
_ANODE = Cu
_V4_INF_CREATOR = XRDWizard
_V4_INF_CREATOR_VERSION = V2.9.0.22
_V4_INF_WIZARD_VERSION = V2.9.0.22
_V4_INF_WIZARD_ADDINS = V2.9.0.22
_V4_INF_WIZARD_DOCTYPE = XRD
_V4_INF_OSUSER = McQueenLab
_V4_INF_USER = Administrator
_V4_INF_SITE = USA
_V4_INF_SAMPLEID = ML_20220718_45_SJD_4_LaB6-2min

; Data for range 1
_DRIVE = COUPLED
_STEPTIME = 5.64
_STEPSIZE = 0.0185756
_STEPMODE = C
_START = 5
_THETA = 2.5
_2THETA = 5
_KHI = 0
_PHI = 0
_X = 0
_Y = 0
_Z = 0
_DETECTOR = 5
; Detector type : Unknown
_DETECTORSLIT = unkn
_AUX1 = 0
_AUX2 = 0
_AUX3 = 0
_TIMESTARTED = 15
_TEMP_RATE = -1
_TEMP_DELAY = -1
_KV = 40
_MA = 40
_RANGE_WL = 1.5406
_3DPLANE = 0
_V4_ADDITIONALDETECTOR = 257
_V4_PSD2THETA = 3.4135
_V4_PSDCHANNEL1 = 0
_V4_PSDAPERTURE = 12.68
_V4_PSDTYPE = 5
_V4_PSDFIXED = 0
_V4_COUNTERS_MASK = 4096
_V4_DRIVES_MASK = 0
_V4_ENCODERS_MASK = 0
_2THETACOUNTS = 1
; 2THETA  PSD
   5.0000        133
   5.0186        116
   5.0372        143
   5.0557        142
   5.0743        122
   5.0929        157
   5.1115        121
   5.1300        138
   5.1486        110
   5.1672        134
   5.1858        135
   5.2043        121
   5.2229        125
   5.2415        143
   5.2601        133
   5.2786        122
   5.2972        112
   5.3158        120
   5.3344        117
   5.3529        113
   5.3715        118
   5.3901        122
   5.4087        100
   5.4272        120
   5.4458        114
   5.4644        109
   5.4830        126
   5.5015        106
   5.5201         90
   5.5387        119
   5.5573         91
   5.5758        110
   5.5944        121
   5.6130        102
   5.6316        102
   5.6501        115
   5.6687        101
   5.6873        105
   5.7059         92
   5.7244        112
   5.7430        107
   5.7616         92
   5.7802         96
   5.7988         98
   5.8173         96
   5.8359        112
   5.8545        101
   5.8731        108
   5.8916        104
   5.9102         94
   5.9288         98
   5.9474         91
   5.9659        104
   5.9845        105
   6.0031         87
   6.0217        100
   6.0402         80
   6.0588         96
   6.0774        109
   6.0960         98
   6.1145        110
   6.1331         90
   6.1517         92
   6.1703         94
   6.1888        111
   6.2074         83
   6.2260         72
   6.2446         86
   6.2631        100
   6.2817         73
   6.3003         92
   6.3189         81
   6.3374         81
   6.3560         92
   6.3746         85
   6.3932         83
   6.4117         80
   6.4303         86
   6.4489        107
   6.4675        107
   6.4860         80
   6.5046         99
   6.5232        103
   6.5418         77
   6.5604         72
   6.5789         83
   6.5975        100
   6.6161         94
   6.6347         79
   6.6532         72
   6.6718         84
   6.6904         92
   6.7090         86
   6.7275         72
   6.7461         69
   6.7647         82
   6.7833         73
   6.8018         73
   6.8204         74
   6.8390         84
   6.8576         78
   6.8761         84
   6.8947         86
   6.9133         90
   6.9319         67
   6.9504        103
   6.9690         97
   6.9876         86
   7.0062         81
   7.0247         70
   7.0433         88
   7.0619         91
   7.0805         80
   7.0990         81
   7.1176         75
   7.1362         81
   7.1548         98
   7.1733         78
   7.1919         83
   7.2105         80
   7.2291         87
   7.2476         76
   7.2662         71
   7.2848         74
   7.3034         69
   7.3220         81
   7.3405         80
   7.3591         88
   7.3777         84
   7.3963         67
   7.4148         58
   7.4334         76
   7.4520         76
   7.4706         80
   7.4891         78
   7.5077         73
   7.5263         76
   7.5449         69
   7.5634         68
   7.5820         67
   7.6006         66
   7.6192         92
   7.6377         92
   7.6563         81
   7.6749         92
   7.6935        103
   7.7120         91
   7.7306         76
   7.7492         76
   7.7678         78
   7.7863         82
   7.8049         78
   7.8235         92
   7.8421        101
   7.8606         92
   7.8792         94
   7.8978         79
   7.9164         86
   7.9349        100
   7.9535         88
   7.9721         90
   7.9907         87
   8.0092         95
   8.0278         82
   8.0464        100
   8.0650         83
   8.0835         92
   8.1021        108
   8.1207         79
   8.1393         82
   8.1579        106
   8.1764         84
   8.1950         80
   8.2136        105
   8.2322        102
   8.2507         97
   8.2693         89
   8.2879        103
   8.3065         97
   8.3250         96
   8.3436         92
   8.3622         82
   8.3808        101
   8.3993         99
   8.4179         93
   8.4365         91
   8.4551         96
   8.4736         90
   8.4922        105
   8.5108        102
   8.5294        110
   8.5479         97
   8.5665         92
   8.5851         96
   8.6037        110
   8.6222         92
   8.6408        112
   8.6594         91
   8.6780        104
   8.6965         90
   8.7151        107
   8.7337        106
   8.7523        114
   8.7708         96
   8.7894         93
   8.8080        100
   8.8266        116
   8.8451        112
   8.8637        115
   8.8823        104
   8.9009         98
   8.9195        101
   8.9380        101
   8.9566         98
   8.9752        120
   8.9938         98
   9.0123        113
   9.0309         99
   9.0495         95
   9.0681        124
   9.0866         92
   9.1052        104
   9.1238         94
   9.1424        113
   9.1609        120
   9.1795        103
   9.1981         87
   9.2167        114
   9.2352        114
   9.2538         96
   9.2724        105
   9.2910         98
   9.3095        135
   9.3281        105
   9.3467        108
   9.3653        107
   9.3838        106
   9.4024        104
   9.4210        126
   9.4396        111
   9.4581        149
   9.4767        100
   9.4953         95
   9.5139         95
   9.5324        121
   9.5510        107
   9.5696        102
   9.5882        112
   9.6067        101
   9.6253        126
   9.6439        105
   9.6625        117
   9.6811         98
   9.6996         96
   9.7182         93
   9.7368        113
   9.7554        112
   9.7739        115
   9.7925        110
   9.8111        116
   9.8297        123
   9.8482        121
   9.8668        123
   9.8854        117
   9.9040        119
   9.9225        113
   9.9411         96
   9.9597        105
   9.9783        125
   9.9968        121
  10.0154        121
  10.0340        104
  10.0526        111
  10.0711        126
  10.0897        116
  10.1083        125
  10.1269        113
  10.1454        132
  10.1640        120
  10.1826        103
  10.2012        109
  10.2197        131
  10.2383        118
  10.2569        127
  10.2755        127
  10.2940        112
  10.3126        105
  10.3312         91
  10.3498        108
  10.3683        123
  10.3869        117
  10.4055        120
  10.4241        127
  10.4427        110
  10.4612        133
  10.4798        126
  10.4984        121
  10.5170        124
  10.5355        123
  10.5541        113
  10.5727        120
  10.5913        124
  10.6098        112
  10.6284        133
  10.6470        113
  10.6656        121
  10.6841        121
  10.7027        124
  10.7213        126
  10.7399        124
  10.7584        137
  10.7770        135
  10.7956        127
  10.8142        125
  10.8327        134
  10.8513        119
  10.8699        127
  10.8885        113
  10.9070        122
  10.9256        133
  10.9442        134
  10.9628        128
  10.9813        107
  10.9999        130
  11.0185        104
  11.0371        128
  11.0556        122
  11.0742        107
  11.0928        105
  11.1114        114
  11.1299        126
  11.1485        114
  11.1671        112
  11.1857        111
  11.2043        124
  11.2228        122
  11.2414        141
  11.2600        102
  11.2786        102
  11.2971        118
  11.3157        124
  11.3343        116
  11.3529         88
  11.3714        101
  11.3900        128
  11.4086        115
  11.4272        133
  11.4457        116
  11.4643        142
  11.4829        119
  11.5015        123
  11.5200        127
  11.5386        114
  11.5572        101
  11.5758        118
  11.5943        126
  11.6129        118
  11.6315        118
  11.6501        122
  11.6686        111
  11.6872        126
  11.7058        115
  11.7244        110
  11.7429        132
  11.7615        117
  11.7801        111
  11.7987        109
  11.8172        115
  11.8358        107
  11.8544        119
  11.8730        111
  11.8915        126
  11.9101        110
  11.9287        117
  11.9473        141
  11.9659         96
  11.9844        118
  12.0030        127
  12.0216        121
  12.0402        126
  12.0587         96
  12.0773        122
  12.0959        126
  12.1145         98
  12.1330        126
  12.1516        105
  12.1702         96
  12.1888        109
  12.2073        119
  12.2259         93
  12.2445        101
  12.2631         93
  12.2816         99
  12.3002        103
  12.3188        109
  12.3374        101
  12.3559        106
  12.3745        107
  12.3931        108
  12.4117        116
  12.4302        115
  12.4488        112
  12.4674         99
  12.4860        100
  12.5045        107
  12.5231        103
  12.5417        114
  12.5603        104
  12.5788        107
  12.5974        122
  12.6160        107
  12.6346        113
  12.6531        107
  12.6717         99
  12.6903         95
  12.7089         94
  12.7274        111
  12.7460        104
  12.7646        115
  12.7832         80
  12.8018        111
  12.8203        106
  12.8389         99
  12.8575        117
  12.8761         95
  12.8946         91
  12.9132         97
  12.9318         95
  12.9504        103
  12.9689        141
  12.9875        104
  13.0061        116
  13.0247        100
  13.0432        110
  13.0618         96
  13.0804         98
  13.0990        102
  13.1175         97
  13.1361         87
  13.1547         92
  13.1733        106
  13.1918        106
  13.2104        105
  13.2290        110
  13.2476        113
  13.2661         95
  13.2847        105
  13.3033         95
  13.3219         98
  13.3404        110
  13.3590         92
  13.3776         98
  13.3962         98
  13.4147         94
  13.4333         91
  13.4519         84
  13.4705         93
  13.4890         90
  13.5076         94
  13.5262         98
  13.5448         93
  13.5634         94
  13.5819         97
  13.6005         84
  13.6191         95
  13.6377         88
  13.6562         88
  13.6748         94
  13.6934         87
  13.7120         93
  13.7305        102
  13.7491         88
  13.7677         92
  13.7863        102
  13.8048         85
  13.8234         83
  13.8420        106
  13.8606         86
  13.8791         73
  13.8977         95
  13.9163         81
  13.9349        104
  13.9534         96
  13.9720         93
  13.9906         89
  14.0092         86
  14.0277         89
  14.0463         89
  14.0649        104
  14.0835         97
  14.1020         86
  14.1206         95
  14.1392         98
  14.1578         87
  14.1763         73
  14.1949         89
  14.2135         84
  14.2321         93
  14.2506         89
  14.2692         87
  14.2878         84
  14.3064         81
  14.3250         75
  14.3435         93
  14.3621         86
  14.3807         99
  14.3993         87
  14.4178         94
  14.4364         78
  14.4550         91
  14.4736         89
  14.4921         93
  14.5107         97
  14.5293         86
  14.5479         89
  14.5664         83
  14.5850         67
  14.6036        101
  14.6222         96
  14.6407         98
  14.6593         86
  14.6779         83
  14.6965         78
  14.7150         70
  14.7336         79
  14.7522         83
  14.7708         86
  14.7893         86
  14.8079         78
  14.8265         93
  14.8451         79
  14.8636         80
  14.8822         75
  14.9008         87
  14.9194         98
  14.9379         91
  14.9565         83
  14.9751         68
  14.9937         70
  15.0122         96
  15.0308         84
  15.0494        100
  15.0680         91
  15.0866         77
  15.1051         98
  15.1237         75
  15.1423         80
  15.1609         73
  15.1794         73
  15.1980         75
  15.2166         86
  15.2352         71
  15.2537         88
  15.2723         90
  15.2909         93
  15.3095         96
  15.3280         78
  15.3466        105
  15.3652         84
  15.3838         91
  15.4023         66
  15.4209         59
  15.4395         84
  15.4581         81
  15.4766         70
  15.4952         84
  15.5138         81
  15.5324         78
  15.5509         83
  15.5695         80
  15.5881         89
  15.6067         89
  15.6252         81
  15.6438         82
  15.6624         84
  15.6810         64
  15.6995         95
  15.7181         59
  15.7367         80
  15.7553         86
  15.7738         73
  15.7924         91
  15.8110         63
  15.8296         75
  15.8482         76
  15.8667         72
  15.8853         93
  15.9039         77
  15.9225         86
  15.9410         70
  15.9596         80
  15.9782         87
  15.9968         98
  16.0153         89
  16.0339         95
  16.0525         99
  16.0711         82
  16.0896         91
  16.1082         67
  16.1268         71
  16.1454         61
  16.1639         62
  16.1825        101
  16.2011         75
  16.2197         80
  16.2382         85
  16.2568         71
  16.2754         61
  16.2940         94
  16.3125         70
  16.3311         75
  16.3497         75
  16.3683         78
  16.3868         74
  16.4054         80
  16.4240         89
  16.4426         80
  16.4611         85
  16.4797         92
  16.4983         80
  16.5169         95
  16.5354         76
  16.5540         80
  16.5726         77
  16.5912         87
  16.6097         62
  16.6283         67
  16.6469         68
  16.6655         84
  16.6841         79
  16.7026         78
  16.7212         84
  16.7398         85
  16.7584         84
  16.7769         89
  16.7955         93
  16.8141         85
  16.8327         80
  16.8512         72
  16.8698         90
  16.8884         80
  16.9070         75
  16.9255         83
  16.9441         79
  16.9627         76
  16.9813         81
  16.9998         95
  17.0184         81
  17.0370         68
  17.0556         83
  17.0741         62
  17.0927         70
  17.1113         79
  17.1299         77
  17.1484         98
  17.1670         81
  17.1856         63
  17.2042         78
  17.2227         89
  17.2413         69
  17.2599         94
  17.2785         87
  17.2970         76
  17.3156         92
  17.3342         81
  17.3528         71
  17.3713         78
  17.3899         88
  17.4085         76
  17.4271         85
  17.4457         60
  17.4642         69
  17.4828         75
  17.5014         94
  17.5200         75
  17.5385         76
  17.5571         96
  17.5757         89
  17.5943         73
  17.6128         88
  17.6314         74
  17.6500         64
  17.6686         82
  17.6871         77
  17.7057         72
  17.7243         77
  17.7429         85
  17.7614         81
  17.7800         81
  17.7986         83
  17.8172         70
  17.8357         83
  17.8543         74
  17.8729         70
  17.8915         79
  17.9100         74
  17.9286         84
  17.9472         82
  17.9658         65
  17.9843         78
  18.0029         79
  18.0215         84
  18.0401         80
  18.0586         74
  18.0772         98
  18.0958         74
  18.1144         82
  18.1329         80
  18.1515         85
  18.1701         80
  18.1887         90
  18.2073         83
  18.2258         75
  18.2444         72
  18.2630         99
  18.2816         75
  18.3001         71
  18.3187         82
  18.3373         69
  18.3559         68
  18.3744         77
  18.3930         91
  18.4116         83
  18.4302         91
  18.4487         80
  18.4673         80
  18.4859         93
  18.5045         84
  18.5230         62
  18.5416         75
  18.5602         84
  18.5788         86
  18.5973         69
  18.6159        100
  18.6345         87
  18.6531         76
  18.6716         86
  18.6902         75
  18.7088        100
  18.7274         87
  18.7459         90
  18.7645         81
  18.7831         82
  18.8017         94
  18.8202         78
  18.8388         77
  18.8574         93
  18.8760         95
  18.8945         81
  18.9131         86
  18.9317         70
  18.9503         81
  18.9689         93
  18.9874         84
  19.0060         81
  19.0246         69
  19.0432         80
  19.0617         82
  19.0803         81
  19.0989         78
  19.1175         69
  19.1360         72
  19.1546         72
  19.1732         87
  19.1918         91
  19.2103         79
  19.2289         90
  19.2475         94
  19.2661         78
  19.2846         85
  19.3032         85
  19.3218         90
  19.3404         82
  19.3589         90
  19.3775         83
  19.3961         91
  19.4147         90
  19.4332         80
  19.4518         86
  19.4704         93
  19.4890         75
  19.5075         94
  19.5261         89
  19.5447         93
  19.5633         88
  19.5818         92
  19.6004         75
  19.6190         72
  19.6376         78
  19.6561         82
  19.6747         80
  19.6933         91
  19.7119         98
  19.7305         91
  19.7490        101
  19.7676         84
  19.7862        109
  19.8048         91
  19.8233         92
  19.8419         84
  19.8605         86
  19.8791         93
  19.8976         80
  19.9162         92
  19.9348         83
  19.9534         81
  19.9719        100
  19.9905        109
  20.0091         79
  20.0277        101
  20.0462        105
  20.0648         96
  20.0834         93
  20.1020         81
  20.1205         92
  20.1391         74
  20.1577         91
  20.1763         84
  20.1948         89
  20.2134         77
  20.2320         86
  20.2506        105
  20.2691         85
  20.2877        102
  20.3063         85
  20.3249        103
  20.3434         97
  20.3620         91
  20.3806         97
  20.3992         99
  20.4177        102
  20.4363         79
  20.4549         69
  20.4735         95
