; (content of file Y:\Sam\Apurva-07-20-2022\puck2\ML_20220720_15_SJD_0_LaB6-1min.raw)
_FILEVERSION = 3
_SAMPLE = ML_20220720_15_SJD_0_LaB6-1mi
_+SAMPLE = 
_SITE = USA
_USER = Administrator
_GONIOMETER_CODE = 20
; Goniometer : D8 theta/2theta, stage : Unknown
_ATTACHMENTS_CODE = 0
_GONIOMETER_RADIUS = 200.5
_FIXED_DIVSLIT = 0.6
_FIXED_SAMPLESLIT = 0
_SOLLER_SLITS = 2
_FIXED_DETSLIT = 9.55
_MONOCHROMATOR = 0
; Incident beam monochromator : None
_SOLLER_SLITS_2 = N
_THIN_FILM = N
_BETA_FILTER = Y
_FIXED_ANTISLIT = 5.89
_ANALYZER_CODE = 0
; Received beam analyzer : None
_DATEMEASURED = "25-Jul-2022 18:14:18"
_WL_UNIT = A
_WL1 = 1.5406
_WL2 = 1.54439
_WL3 = 1.39222
_WLRATIO = 0.5
_ANODE = Cu
_V4_INF_CREATOR = XRDWizard
_V4_INF_CREATOR_VERSION = V2.9.0.22
_V4_INF_WIZARD_VERSION = V2.9.0.22
_V4_INF_WIZARD_ADDINS = V2.9.0.22
_V4_INF_WIZARD_DOCTYPE = XRD
_V4_INF_OSUSER = McQueenLab
_V4_INF_USER = Administrator
_V4_INF_SITE = USA
_V4_INF_SAMPLEID = ML_20220720_15_SJD_0_LaB6-1mi

; Data for range 1
_DRIVE = COUPLED
_STEPTIME = 4.23
_STEPSIZE = 0.0185756
_STEPMODE = C
_START = 5
_THETA = 2.5
_2THETA = 5
_KHI = 0
_PHI = 0
_X = 0
_Y = 0
_Z = 0
_DETECTOR = 5
; Detector type : Unknown
_DETECTORSLIT = unkn
_AUX1 = 0
_AUX2 = 0
_AUX3 = 0
_TIMESTARTED = 16
_TEMP_RATE = -1
_TEMP_DELAY = -1
_KV = 40
_MA = 40
_RANGE_WL = 1.5406
_3DPLANE = 0
_V4_ADDITIONALDETECTOR = 257
_V4_PSD2THETA = 3.4436
_V4_PSDCHANNEL1 = 0
_V4_PSDAPERTURE = 12.68
_V4_PSDTYPE = 5
_V4_PSDFIXED = 0
_V4_COUNTERS_MASK = 4096
_V4_DRIVES_MASK = 0
_V4_ENCODERS_MASK = 0
_2THETACOUNTS = 1
; 2THETA  PSD
   5.0000         83
   5.0186        115
   5.0372         96
   5.0557        103
   5.0743         89
   5.0929        100
   5.1115        108
   5.1300        103
   5.1486        113
   5.1672         83
   5.1858        109
   5.2043         94
   5.2229        109
   5.2415         87
   5.2601         87
   5.2786         86
   5.2972        102
   5.3158         84
   5.3344         97
   5.3529         90
   5.3715         85
   5.3901         81
   5.4087         78
   5.4272         97
   5.4458         93
   5.4644         87
   5.4830         81
   5.5015         82
   5.5201         75
   5.5387         94
   5.5573         73
   5.5758         98
   5.5944         68
   5.6130         81
   5.6316         63
   5.6501         87
   5.6687         75
   5.6873         78
   5.7059         74
   5.7244         89
   5.7430         85
   5.7616         70
   5.7802         67
   5.7988         70
   5.8173         78
   5.8359         72
   5.8545         81
   5.8731         73
   5.8916         70
   5.9102         81
   5.9288         69
   5.9474         88
   5.9659         76
   5.9845         87
   6.0031         76
   6.0217         77
   6.0402         82
   6.0588         59
   6.0774         69
   6.0960         77
   6.1145         81
   6.1331         63
   6.1517         63
   6.1703         74
   6.1888         67
   6.2074         69
   6.2260         62
   6.2446         65
   6.2631         72
   6.2817         72
   6.3003         57
   6.3189         68
   6.3374         74
   6.3560         68
   6.3746         73
   6.3932         62
   6.4117         64
   6.4303         69
   6.4489         71
   6.4675         70
   6.4860         48
   6.5046         68
   6.5232         70
   6.5418         58
   6.5604         52
   6.5789         63
   6.5975         68
   6.6161         71
   6.6347         70
   6.6532         64
   6.6718         60
   6.6904         61
   6.7090         70
   6.7275         58
   6.7461         57
   6.7647         54
   6.7833         45
   6.8018         59
   6.8204         53
   6.8390         65
   6.8576         50
   6.8761         61
   6.8947         64
   6.9133         55
   6.9319         61
   6.9504         71
   6.9690         61
   6.9876         46
   7.0062         58
   7.0247         54
   7.0433         64
   7.0619         58
   7.0805         70
   7.0990         49
   7.1176         59
   7.1362         50
   7.1548         54
   7.1733         51
   7.1919         58
   7.2105         61
   7.2291         62
   7.2476         65
   7.2662         56
   7.2848         56
   7.3034         60
   7.3220         75
   7.3405         59
   7.3591         57
   7.3777         66
   7.3963         54
   7.4148         66
   7.4334         66
   7.4520         73
   7.4706         61
   7.4891         64
   7.5077         54
   7.5263         67
   7.5449         78
   7.5634         63
   7.5820         54
   7.6006         62
   7.6192         75
   7.6377         78
   7.6563         81
   7.6749         84
   7.6935         71
   7.7120         70
   7.7306         73
   7.7492         51
   7.7678         57
   7.7863         62
   7.8049         74
   7.8235         63
   7.8421         73
   7.8606         61
   7.8792         86
   7.8978         63
   7.9164         82
   7.9349         54
   7.9535         69
   7.9721         65
   7.9907         62
   8.0092         73
   8.0278         57
   8.0464         63
   8.0650         84
   8.0835         67
   8.1021         71
   8.1207         66
   8.1393         73
   8.1579         87
   8.1764         73
   8.1950         66
   8.2136         64
   8.2322         73
   8.2507         75
   8.2693         77
   8.2879         73
   8.3065         63
   8.3250         79
   8.3436         77
   8.3622         61
   8.3808         65
   8.3993         83
   8.4179         77
   8.4365         59
   8.4551         62
   8.4736         81
   8.4922         74
   8.5108         78
   8.5294         78
   8.5479         80
   8.5665         73
   8.5851         92
   8.6037         69
   8.6222         89
   8.6408         79
   8.6594         67
   8.6780         75
   8.6965         70
   8.7151         54
   8.7337         80
   8.7523         90
   8.7708         70
   8.7894         77
   8.8080         81
   8.8266         54
   8.8451         77
   8.8637         79
   8.8823         86
   8.9009         76
   8.9195         67
   8.9380         64
   8.9566         89
   8.9752         85
   8.9938         85
   9.0123         76
   9.0309         64
   9.0495         85
   9.0681         85
   9.0866         80
   9.1052         80
   9.1238         73
   9.1424         85
   9.1609         79
   9.1795         67
   9.1981         73
   9.2167         96
   9.2352         66
   9.2538         79
   9.2724         86
   9.2910         86
   9.3095         85
   9.3281         72
   9.3467         94
   9.3653         77
   9.3838         68
   9.4024         83
   9.4210         80
   9.4396         69
   9.4581         92
   9.4767         81
   9.4953         85
   9.5139         76
   9.5324         89
   9.5510         80
   9.5696         91
   9.5882         88
   9.6067         74
   9.6253         84
   9.6439         85
   9.6625         78
   9.6811         89
   9.6996         72
   9.7182         76
   9.7368         77
   9.7554         81
   9.7739         74
   9.7925         85
   9.8111         92
   9.8297        100
   9.8482         73
   9.8668        104
   9.8854         60
   9.9040        102
   9.9225         88
   9.9411         81
   9.9597         89
   9.9783         92
   9.9968         71
  10.0154        102
  10.0340         97
  10.0526         96
  10.0711         79
  10.0897        101
  10.1083         82
  10.1269         88
  10.1454         99
  10.1640        101
  10.1826         87
  10.2012         93
  10.2197        107
  10.2383         96
  10.2569         95
  10.2755         81
  10.2940        111
  10.3126         79
  10.3312         93
  10.3498         95
  10.3683         86
  10.3869         97
  10.4055        101
  10.4241         94
  10.4427         86
  10.4612         83
  10.4798         90
  10.4984         84
  10.5170        101
  10.5355         88
  10.5541         89
  10.5727         95
  10.5913         97
  10.6098        111
  10.6284         77
  10.6470         87
  10.6656        103
  10.6841         73
  10.7027         83
  10.7213         96
  10.7399         84
  10.7584         81
  10.7770         96
  10.7956        123
  10.8142        100
  10.8327         98
  10.8513         81
  10.8699        105
  10.8885         76
  10.9070         93
  10.9256         96
  10.9442         67
  10.9628         87
  10.9813         76
  10.9999         77
  11.0185         94
  11.0371         95
  11.0556         85
  11.0742         98
  11.0928         84
  11.1114         96
  11.1299         98
  11.1485         67
  11.1671         85
  11.1857         99
  11.2043         88
  11.2228        101
  11.2414         76
  11.2600         65
  11.2786         84
  11.2971         72
  11.3157         79
  11.3343         85
  11.3529         88
  11.3714         87
  11.3900         91
  11.4086         92
  11.4272         76
  11.4457         86
  11.4643        102
  11.4829         70
  11.5015        101
  11.5200         90
  11.5386         78
  11.5572         76
  11.5758         86
  11.5943         73
  11.6129         91
  11.6315         89
  11.6501        103
  11.6686        102
  11.6872         88
  11.7058         87
  11.7244         66
  11.7429         88
  11.7615        101
  11.7801         86
  11.7987         89
  11.8172         85
  11.8358         86
  11.8544         76
  11.8730         79
  11.8915         75
  11.9101         73
  11.9287         97
  11.9473         91
  11.9659         69
  11.9844         75
  12.0030         82
  12.0216         97
  12.0402         97
  12.0587         72
  12.0773         89
  12.0959         75
  12.1145         80
  12.1330        105
  12.1516         82
  12.1702         88
  12.1888         83
  12.2073         90
  12.2259         74
  12.2445         88
  12.2631         89
  12.2816         87
  12.3002         89
  12.3188         87
  12.3374         82
  12.3559         84
  12.3745         86
  12.3931         92
  12.4117        101
  12.4302         87
  12.4488         86
  12.4674         77
  12.4860         83
  12.5045         79
  12.5231         80
  12.5417         73
  12.5603         80
  12.5788         93
  12.5974         81
  12.6160         83
  12.6346         64
  12.6531         71
  12.6717         79
  12.6903         91
  12.7089         74
  12.7274         72
  12.7460         62
  12.7646         70
  12.7832         72
  12.8018         92
  12.8203         67
  12.8389         85
  12.8575         87
  12.8761         83
  12.8946         73
  12.9132         79
  12.9318         63
  12.9504         66
  12.9689         78
  12.9875         88
  13.0061         69
  13.0247         74
  13.0432         78
  13.0618         78
  13.0804         74
  13.0990         75
  13.1175         75
  13.1361         76
  13.1547         59
  13.1733         64
  13.1918         81
  13.2104         49
  13.2290         66
  13.2476         69
  13.2661         61
  13.2847         78
  13.3033         75
  13.3219         76
  13.3404         87
  13.3590         86
  13.3776         76
  13.3962         71
  13.4147         82
  13.4333         79
  13.4519         75
  13.4705         71
  13.4890         73
  13.5076         67
  13.5262         76
  13.5448         70
  13.5634         65
  13.5819         58
  13.6005         68
  13.6191         63
  13.6377         70
  13.6562         79
  13.6748         81
  13.6934         74
  13.7120         68
  13.7305         67
  13.7491         70
  13.7677         73
  13.7863         61
  13.8048         68
  13.8234         81
  13.8420         86
  13.8606         62
  13.8791         70
  13.8977         64
  13.9163         79
  13.9349         73
  13.9534         60
  13.9720         60
  13.9906         62
  14.0092         59
  14.0277         53
  14.0463         66
  14.0649         53
  14.0835         80
  14.1020         54
  14.1206         62
  14.1392         72
  14.1578         60
  14.1763         56
  14.1949         65
  14.2135         66
  14.2321         61
  14.2506         70
  14.2692         77
  14.2878         69
  14.3064         66
  14.3250         68
  14.3435         81
  14.3621         81
  14.3807         53
  14.3993         67
  14.4178         58
  14.4364         67
  14.4550         79
  14.4736         62
  14.4921         87
  14.5107         58
  14.5293         49
  14.5479         54
  14.5664         69
  14.5850         67
  14.6036         82
  14.6222         58
  14.6407         70
  14.6593         74
  14.6779         72
  14.6965         54
  14.7150         77
  14.7336         55
  14.7522         69
  14.7708         51
  14.7893         58
  14.8079         57
  14.8265         61
  14.8451         61
  14.8636         65
  14.8822         76
  14.9008         59
  14.9194         48
  14.9379         62
  14.9565         71
  14.9751         60
  14.9937         61
  15.0122         56
  15.0308         70
  15.0494         70
  15.0680         64
  15.0866         76
  15.1051         63
  15.1237         74
  15.1423         52
  15.1609         58
  15.1794         50
  15.1980         62
  15.2166         64
  15.2352         64
  15.2537         62
  15.2723         63
  15.2909         60
  15.3095         55
  15.3280         53
  15.3466         68
  15.3652         66
  15.3838         68
  15.4023         63
  15.4209         61
  15.4395         46
  15.4581         58
  15.4766         53
  15.4952         52
  15.5138         58
  15.5324         67
  15.5509         58
  15.5695         51
  15.5881         66
  15.6067         56
  15.6252         68
  15.6438         59
  15.6624         52
  15.6810         55
  15.6995         75
  15.7181         78
  15.7367         53
  15.7553         71
  15.7738         73
  15.7924         60
  15.8110         50
  15.8296         65
  15.8482         52
  15.8667         54
  15.8853         52
  15.9039         58
  15.9225         46
  15.9410         49
  15.9596         70
  15.9782         73
  15.9968         61
  16.0153         67
  16.0339         61
  16.0525         62
  16.0711         61
  16.0896         63
  16.1082         57
  16.1268         53
  16.1454         47
  16.1639         49
  16.1825         63
  16.2011         54
  16.2197         61
  16.2382         60
  16.2568         64
  16.2754         45
  16.2940         69
  16.3125         60
  16.3311         65
  16.3497         48
  16.3683         54
  16.3868         68
  16.4054         51
  16.4240         68
  16.4426         59
  16.4611         59
  16.4797         43
  16.4983         66
  16.5169         56
  16.5354         63
  16.5540         69
  16.5726         65
  16.5912         69
  16.6097         71
  16.6283         54
  16.6469         57
  16.6655         59
  16.6841         54
  16.7026         59
  16.7212         71
  16.7398         63
  16.7584         55
  16.7769         64
  16.7955         72
  16.8141         61
  16.8327         63
  16.8512         66
  16.8698         53
  16.8884         61
  16.9070         63
  16.9255         65
  16.9441         65
  16.9627         55
  16.9813         58
  16.9998         66
  17.0184         56
  17.0370         54
  17.0556         73
  17.0741         57
  17.0927         57
  17.1113         61
  17.1299         59
  17.1484         52
  17.1670         65
  17.1856         56
  17.2042         63
  17.2227         62
  17.2413         56
  17.2599         74
  17.2785         57
  17.2970         63
  17.3156         61
  17.3342         67
  17.3528         56
  17.3713         57
  17.3899         68
  17.4085         59
  17.4271         59
  17.4457         48
  17.4642         62
  17.4828         56
  17.5014         64
  17.5200         58
  17.5385         59
  17.5571         74
  17.5757         65
  17.5943         60
  17.6128         62
  17.6314         65
  17.6500         66
  17.6686         67
  17.6871         71
  17.7057         60
  17.7243         51
  17.7429         70
  17.7614         66
  17.7800         69
  17.7986         56
  17.8172         53
  17.8357         48
  17.8543         73
  17.8729         54
  17.8915         73
  17.9100         65
  17.9286         60
  17.9472         63
  17.9658         53
  17.9843         64
  18.0029         55
  18.0215         63
  18.0401         47
  18.0586         71
  18.0772         53
  18.0958         64
  18.1144         64
  18.1329         66
  18.1515         65
  18.1701         62
  18.1887         49
  18.2073         75
  18.2258         49
  18.2444         51
  18.2630         83
  18.2816         68
  18.3001         66
  18.3187         65
  18.3373         57
  18.3559         64
  18.3744         62
  18.3930         62
  18.4116         61
  18.4302         76
  18.4487         53
  18.4673         60
  18.4859         61
  18.5045         57
  18.5230         62
  18.5416         50
  18.5602         60
  18.5788         56
  18.5973         73
  18.6159         74
  18.6345         56
  18.6531         48
  18.6716         67
  18.6902         66
  18.7088         56
  18.7274         48
  18.7459         59
  18.7645         48
  18.7831         58
  18.8017         66
  18.8202         70
  18.8388         63
  18.8574         66
  18.8760         53
  18.8945         72
  18.9131         45
  18.9317         63
  18.9503         54
  18.9689         65
  18.9874         57
  19.0060         43
  19.0246         64
  19.0432         61
  19.0617         60
  19.0803         66
  19.0989         56
  19.1175         69
  19.1360         63
  19.1546         60
  19.1732         59
  19.1918         52
  19.2103         73
  19.2289         65
  19.2475         47
  19.2661         61
  19.2846         65
  19.3032         61
  19.3218         54
  19.3404         64
  19.3589         71
  19.3775         47
  19.3961         59
  19.4147         68
  19.4332         56
  19.4518         62
  19.4704         64
  19.4890         71
  19.5075         52
  19.5261         55
  19.5447         63
  19.5633         71
  19.5818         66
  19.6004         57
  19.6190         61
  19.6376         69
  19.6561         53
  19.6747         58
  19.6933         71
  19.7119         68
  19.7305         60
  19.7490         56
  19.7676         63
  19.7862         52
  19.8048         79
  19.8233         72
  19.8419         77
  19.8605         55
  19.8791         59
  19.8976         82
  19.9162         52
  19.9348         71
  19.9534         56
  19.9719         66
  19.9905         58
  20.0091         59
  20.0277         59
  20.0462         58
  20.0648         73
  20.0834         64
  20.1020         66
  20.1205         60
  20.1391         69
  20.1577         66
  20.1763         60
  20.1948         75
  20.2134         53
  20.2320         70
  20.2506         64
  20.2691         64
  20.2877         68
  20.3063         61
  20.3249         69
  20.3434         64
  20.3620         74
  20.3806         70
  20.3992         64
  20.4177         58
  20.4363         73
  20.4549         67
  20.4735         64
