; (content of file Y:\Sam\Apurva-07-20-2022\puck4\ML_20220718_58_SJD_4_LaB6-4min.raw)
_FILEVERSION = 3
_SAMPLE = ML_20220718_58_SJD_4_LaB6-4min
_+SAMPLE = 
_SITE = USA
_USER = Administrator
_GONIOMETER_CODE = 20
; Goniometer : D8 theta/2theta, stage : Unknown
_ATTACHMENTS_CODE = 0
_GONIOMETER_RADIUS = 200.5
_FIXED_DIVSLIT = 0.6
_FIXED_SAMPLESLIT = 0
_SOLLER_SLITS = 2
_FIXED_DETSLIT = 9.55
_MONOCHROMATOR = 0
; Incident beam monochromator : None
_SOLLER_SLITS_2 = N
_THIN_FILM = N
_BETA_FILTER = Y
_FIXED_ANTISLIT = 5.89
_ANALYZER_CODE = 0
; Received beam analyzer : None
_DATEMEASURED = "26-Jul-2022 14:40:55"
_WL_UNIT = A
_WL1 = 1.5406
_WL2 = 1.54439
_WL3 = 1.39222
_WLRATIO = 0.5
_ANODE = Cu
_V4_INF_CREATOR = XRDWizard
_V4_INF_CREATOR_VERSION = V2.9.0.22
_V4_INF_WIZARD_VERSION = V2.9.0.22
_V4_INF_WIZARD_ADDINS = V2.9.0.22
_V4_INF_WIZARD_DOCTYPE = XRD
_V4_INF_OSUSER = McQueenLab
_V4_INF_USER = Administrator
_V4_INF_SITE = USA
_V4_INF_SAMPLEID = ML_20220718_58_SJD_4_LaB6-4min

; Data for range 1
_DRIVE = COUPLED
_STEPTIME = 11.28
_STEPSIZE = 0.0185756
_STEPMODE = C
_START = 5
_THETA = 2.5
_2THETA = 5
_KHI = 0
_PHI = 0
_X = 0
_Y = 0
_Z = 0
_DETECTOR = 5
; Detector type : Unknown
_DETECTORSLIT = unkn
_AUX1 = 0
_AUX2 = 0
_AUX3 = 0
_TIMESTARTED = 15
_TEMP_RATE = -1
_TEMP_DELAY = -1
_KV = 40
_MA = 40
_RANGE_WL = 1.5406
_3DPLANE = 0
_V4_ADDITIONALDETECTOR = 257
_V4_PSD2THETA = 3.3891
_V4_PSDCHANNEL1 = 0
_V4_PSDAPERTURE = 12.68
_V4_PSDTYPE = 5
_V4_PSDFIXED = 0
_V4_COUNTERS_MASK = 4096
_V4_DRIVES_MASK = 0
_V4_ENCODERS_MASK = 0
_2THETACOUNTS = 1
; 2THETA  PSD
   5.0000        283
   5.0186        274
   5.0372        279
   5.0557        294
   5.0743        277
   5.0929        267
   5.1115        269
   5.1300        251
   5.1486        254
   5.1672        267
   5.1858        241
   5.2043        221
   5.2229        245
   5.2415        225
   5.2601        267
   5.2786        275
   5.2972        236
   5.3158        238
   5.3344        273
   5.3529        228
   5.3715        241
   5.3901        232
   5.4087        214
   5.4272        261
   5.4458        219
   5.4644        252
   5.4830        209
   5.5015        227
   5.5201        234
   5.5387        238
   5.5573        239
   5.5758        203
   5.5944        230
   5.6130        252
   5.6316        241
   5.6501        217
   5.6687        228
   5.6873        218
   5.7059        218
   5.7244        213
   5.7430        214
   5.7616        181
   5.7802        217
   5.7988        207
   5.8173        208
   5.8359        210
   5.8545        189
   5.8731        216
   5.8916        203
   5.9102        211
   5.9288        201
   5.9474        232
   5.9659        166
   5.9845        210
   6.0031        222
   6.0217        206
   6.0402        206
   6.0588        186
   6.0774        177
   6.0960        202
   6.1145        190
   6.1331        194
   6.1517        174
   6.1703        184
   6.1888        207
   6.2074        196
   6.2260        206
   6.2446        215
   6.2631        206
   6.2817        180
   6.3003        176
   6.3189        170
   6.3374        191
   6.3560        189
   6.3746        184
   6.3932        198
   6.4117        175
   6.4303        180
   6.4489        171
   6.4675        177
   6.4860        211
   6.5046        185
   6.5232        177
   6.5418        168
   6.5604        166
   6.5789        160
   6.5975        191
   6.6161        172
   6.6347        183
   6.6532        182
   6.6718        150
   6.6904        185
   6.7090        197
   6.7275        176
   6.7461        212
   6.7647        179
   6.7833        172
   6.8018        178
   6.8204        169
   6.8390        182
   6.8576        184
   6.8761        179
   6.8947        147
   6.9133        172
   6.9319        138
   6.9504        158
   6.9690        153
   6.9876        172
   7.0062        180
   7.0247        165
   7.0433        157
   7.0619        161
   7.0805        176
   7.0990        157
   7.1176        166
   7.1362        132
   7.1548        145
   7.1733        175
   7.1919        143
   7.2105        166
   7.2291        145
   7.2476        172
   7.2662        146
   7.2848        162
   7.3034        158
   7.3220        139
   7.3405        147
   7.3591        183
   7.3777        186
   7.3963        155
   7.4148        185
   7.4334        154
   7.4520        168
   7.4706        157
   7.4891        158
   7.5077        133
   7.5263        184
   7.5449        182
   7.5634        165
   7.5820        189
   7.6006        172
   7.6192        162
   7.6377        188
   7.6563        172
   7.6749        163
   7.6935        186
   7.7120        193
   7.7306        175
   7.7492        168
   7.7678        200
   7.7863        177
   7.8049        173
   7.8235        165
   7.8421        164
   7.8606        187
   7.8792        167
   7.8978        168
   7.9164        193
   7.9349        168
   7.9535        176
   7.9721        178
   7.9907        181
   8.0092        194
   8.0278        204
   8.0464        166
   8.0650        173
   8.0835        186
   8.1021        180
   8.1207        192
   8.1393        172
   8.1579        206
   8.1764        198
   8.1950        204
   8.2136        172
   8.2322        179
   8.2507        178
   8.2693        176
   8.2879        194
   8.3065        218
   8.3250        204
   8.3436        180
   8.3622        186
   8.3808        163
   8.3993        197
   8.4179        187
   8.4365        190
   8.4551        206
   8.4736        207
   8.4922        191
   8.5108        211
   8.5294        214
   8.5479        197
   8.5665        206
   8.5851        183
   8.6037        169
   8.6222        231
   8.6408        191
   8.6594        211
   8.6780        227
   8.6965        192
   8.7151        176
   8.7337        208
   8.7523        228
   8.7708        195
   8.7894        208
   8.8080        228
   8.8266        233
   8.8451        205
   8.8637        217
   8.8823        227
   8.9009        211
   8.9195        210
   8.9380        227
   8.9566        224
   8.9752        226
   8.9938        219
   9.0123        203
   9.0309        212
   9.0495        226
   9.0681        215
   9.0866        224
   9.1052        205
   9.1238        216
   9.1424        224
   9.1609        205
   9.1795        237
   9.1981        191
   9.2167        204
   9.2352        219
   9.2538        222
   9.2724        250
   9.2910        213
   9.3095        201
   9.3281        204
   9.3467        218
   9.3653        208
   9.3838        223
   9.4024        242
   9.4210        209
   9.4396        222
   9.4581        213
   9.4767        240
   9.4953        199
   9.5139        221
   9.5324        242
   9.5510        256
   9.5696        242
   9.5882        197
   9.6067        246
   9.6253        249
   9.6439        209
   9.6625        215
   9.6811        208
   9.6996        248
   9.7182        210
   9.7368        222
   9.7554        220
   9.7739        241
   9.7925        224
   9.8111        232
   9.8297        251
   9.8482        246
   9.8668        219
   9.8854        228
   9.9040        230
   9.9225        226
   9.9411        233
   9.9597        236
   9.9783        220
   9.9968        222
  10.0154        235
  10.0340        228
  10.0526        244
  10.0711        215
  10.0897        230
  10.1083        235
  10.1269        246
  10.1454        251
  10.1640        233
  10.1826        252
  10.2012        268
  10.2197        252
  10.2383        266
  10.2569        259
  10.2755        217
  10.2940        249
  10.3126        255
  10.3312        230
  10.3498        241
  10.3683        212
  10.3869        226
  10.4055        245
  10.4241        243
  10.4427        275
  10.4612        273
  10.4798        228
  10.4984        230
  10.5170        244
  10.5355        261
  10.5541        252
  10.5727        234
  10.5913        232
  10.6098        266
  10.6284        258
  10.6470        243
  10.6656        249
  10.6841        238
  10.7027        236
  10.7213        223
  10.7399        220
  10.7584        253
  10.7770        272
  10.7956        243
  10.8142        223
  10.8327        237
  10.8513        253
  10.8699        236
  10.8885        233
  10.9070        252
  10.9256        259
  10.9442        233
  10.9628        209
  10.9813        243
  10.9999        260
  11.0185        243
  11.0371        236
  11.0556        237
  11.0742        247
  11.0928        221
  11.1114        242
  11.1299        240
  11.1485        232
  11.1671        254
  11.1857        228
  11.2043        242
  11.2228        215
  11.2414        230
  11.2600        227
  11.2786        215
  11.2971        231
  11.3157        232
  11.3343        225
  11.3529        227
  11.3714        229
  11.3900        240
  11.4086        223
  11.4272        242
  11.4457        238
  11.4643        259
  11.4829        237
  11.5015        281
  11.5200        226
  11.5386        243
  11.5572        237
  11.5758        205
  11.5943        227
  11.6129        234
  11.6315        244
  11.6501        242
  11.6686        225
  11.6872        261
  11.7058        226
  11.7244        206
  11.7429        215
  11.7615        258
  11.7801        197
  11.7987        212
  11.8172        254
  11.8358        226
  11.8544        195
  11.8730        252
  11.8915        219
  11.9101        203
  11.9287        230
  11.9473        232
  11.9659        231
  11.9844        257
  12.0030        228
  12.0216        243
  12.0402        215
  12.0587        254
  12.0773        221
  12.0959        229
  12.1145        228
  12.1330        241
  12.1516        216
  12.1702        209
  12.1888        203
  12.2073        208
  12.2259        227
  12.2445        247
  12.2631        236
  12.2816        196
  12.3002        207
  12.3188        237
  12.3374        204
  12.3559        249
  12.3745        207
  12.3931        221
  12.4117        229
  12.4302        200
  12.4488        203
  12.4674        206
  12.4860        197
  12.5045        243
  12.5231        204
  12.5417        245
  12.5603        202
  12.5788        208
  12.5974        224
  12.6160        221
  12.6346        215
  12.6531        217
  12.6717        211
  12.6903        205
  12.7089        209
  12.7274        214
  12.7460        201
  12.7646        204
  12.7832        235
  12.8018        235
  12.8203        228
  12.8389        199
  12.8575        206
  12.8761        215
  12.8946        226
  12.9132        198
  12.9318        196
  12.9504        207
  12.9689        198
  12.9875        225
  13.0061        201
  13.0247        193
  13.0432        193
  13.0618        240
  13.0804        202
  13.0990        192
  13.1175        208
  13.1361        196
  13.1547        187
  13.1733        212
  13.1918        218
  13.2104        194
  13.2290        193
  13.2476        192
  13.2661        201
  13.2847        195
  13.3033        175
  13.3219        193
  13.3404        197
  13.3590        228
  13.3776        177
  13.3962        176
  13.4147        199
  13.4333        183
  13.4519        194
  13.4705        202
  13.4890        194
  13.5076        177
  13.5262        208
  13.5448        201
  13.5634        199
  13.5819        202
  13.6005        191
  13.6191        187
  13.6377        195
  13.6562        184
  13.6748        157
  13.6934        186
  13.7120        213
  13.7305        188
  13.7491        217
  13.7677        197
  13.7863        171
  13.8048        178
  13.8234        183
  13.8420        198
  13.8606        187
  13.8791        199
  13.8977        180
  13.9163        186
  13.9349        162
  13.9534        200
  13.9720        177
  13.9906        174
  14.0092        175
  14.0277        201
  14.0463        197
  14.0649        168
  14.0835        184
  14.1020        191
  14.1206        182
  14.1392        181
  14.1578        186
  14.1763        184
  14.1949        185
  14.2135        197
  14.2321        168
  14.2506        209
  14.2692        200
  14.2878        173
  14.3064        197
  14.3250        188
  14.3435        165
  14.3621        176
  14.3807        185
  14.3993        165
  14.4178        177
  14.4364        163
  14.4550        170
  14.4736        157
  14.4921        179
  14.5107        163
  14.5293        187
  14.5479        164
  14.5664        172
  14.5850        162
  14.6036        182
  14.6222        179
  14.6407        192
  14.6593        148
  14.6779        174
  14.6965        172
  14.7150        165
  14.7336        202
  14.7522        184
  14.7708        178
  14.7893        159
  14.8079        171
  14.8265        151
  14.8451        157
  14.8636        154
  14.8822        148
  14.9008        152
  14.9194        176
  14.9379        181
  14.9565        166
  14.9751        188
  14.9937        167
  15.0122        164
  15.0308        195
  15.0494        157
  15.0680        154
  15.0866        152
  15.1051        161
  15.1237        172
  15.1423        155
  15.1609        175
  15.1794        190
  15.1980        155
  15.2166        162
  15.2352        174
  15.2537        146
  15.2723        166
  15.2909        160
  15.3095        181
  15.3280        183
  15.3466        175
  15.3652        166
  15.3838        170
  15.4023        164
  15.4209        151
  15.4395        155
  15.4581        185
  15.4766        156
  15.4952        168
  15.5138        178
  15.5324        182
  15.5509        156
  15.5695        161
  15.5881        141
  15.6067        160
  15.6252        173
  15.6438        168
  15.6624        183
  15.6810        167
  15.6995        134
  15.7181        169
  15.7367        172
  15.7553        173
  15.7738        128
  15.7924        166
  15.8110        179
  15.8296        179
  15.8482        149
  15.8667        155
  15.8853        177
  15.9039        174
  15.9225        141
  15.9410        142
  15.9596        130
  15.9782        189
  15.9968        161
  16.0153        167
  16.0339        184
  16.0525        189
  16.0711        159
  16.0896        170
  16.1082        181
  16.1268        178
  16.1454        160
  16.1639        160
  16.1825        180
  16.2011        156
  16.2197        161
  16.2382        157
  16.2568        152
  16.2754        151
  16.2940        172
  16.3125        148
  16.3311        164
  16.3497        162
  16.3683        163
  16.3868        177
  16.4054        168
  16.4240        163
  16.4426        147
  16.4611        168
  16.4797        149
  16.4983        175
  16.5169        178
  16.5354        172
  16.5540        148
  16.5726        159
  16.5912        163
  16.6097        173
  16.6283        162
  16.6469        171
  16.6655        152
  16.6841        149
  16.7026        169
  16.7212        179
  16.7398        158
  16.7584        165
  16.7769        161
  16.7955        147
  16.8141        167
  16.8327        159
  16.8512        153
  16.8698        152
  16.8884        160
  16.9070        165
  16.9255        160
  16.9441        158
  16.9627        166
  16.9813        176
  16.9998        149
  17.0184        166
  17.0370        162
  17.0556        165
  17.0741        154
  17.0927        182
  17.1113        159
  17.1299        150
  17.1484        167
  17.1670        165
  17.1856        170
  17.2042        177
  17.2227        155
  17.2413        177
  17.2599        162
  17.2785        184
  17.2970        161
  17.3156        158
  17.3342        176
  17.3528        150
  17.3713        173
  17.3899        152
  17.4085        178
  17.4271        156
  17.4457        167
  17.4642        153
  17.4828        170
  17.5014        159
  17.5200        140
  17.5385        152
  17.5571        157
  17.5757        153
  17.5943        184
  17.6128        158
  17.6314        151
  17.6500        171
  17.6686        174
  17.6871        185
  17.7057        186
  17.7243        171
  17.7429        178
  17.7614        158
  17.7800        161
  17.7986        158
  17.8172        165
  17.8357        149
  17.8543        169
  17.8729        185
  17.8915        184
  17.9100        155
  17.9286        155
  17.9472        177
  17.9658        149
  17.9843        163
  18.0029        162
  18.0215        159
  18.0401        159
  18.0586        165
  18.0772        179
  18.0958        163
  18.1144        179
  18.1329        171
  18.1515        174
  18.1701        171
  18.1887        183
  18.2073        165
  18.2258        159
  18.2444        157
  18.2630        155
  18.2816        158
  18.3001        153
  18.3187        173
  18.3373        164
  18.3559        173
  18.3744        169
  18.3930        172
  18.4116        168
  18.4302        183
  18.4487        180
  18.4673        154
  18.4859        156
  18.5045        173
  18.5230        153
  18.5416        159
  18.5602        176
  18.5788        154
  18.5973        183
  18.6159        185
  18.6345        149
  18.6531        182
  18.6716        181
  18.6902        194
  18.7088        160
  18.7274        172
  18.7459        142
  18.7645        166
  18.7831        158
  18.8017        162
  18.8202        150
  18.8388        157
  18.8574        179
  18.8760        154
  18.8945        176
  18.9131        185
  18.9317        169
  18.9503        169
  18.9689        202
  18.9874        160
  19.0060        160
  19.0246        148
  19.0432        191
  19.0617        152
  19.0803        173
  19.0989        192
  19.1175        164
  19.1360        169
  19.1546        202
  19.1732        186
  19.1918        177
  19.2103        204
  19.2289        151
  19.2475        180
  19.2661        161
  19.2846        160
  19.3032        169
  19.3218        179
  19.3404        165
  19.3589        193
  19.3775        155
  19.3961        200
  19.4147        174
  19.4332        159
  19.4518        177
  19.4704        163
  19.4890        144
  19.5075        160
  19.5261        180
  19.5447        164
  19.5633        158
  19.5818        138
  19.6004        167
  19.6190        197
  19.6376        154
  19.6561        162
  19.6747        144
  19.6933        183
  19.7119        195
  19.7305        185
  19.7490        185
  19.7676        177
  19.7862        194
  19.8048        191
  19.8233        195
  19.8419        189
  19.8605        166
  19.8791        179
  19.8976        201
  19.9162        183
  19.9348        162
  19.9534        167
  19.9719        186
  19.9905        194
  20.0091        183
  20.0277        170
  20.0462        195
  20.0648        184
  20.0834        192
  20.1020        181
  20.1205        158
  20.1391        188
  20.1577        192
  20.1763        191
  20.1948        184
  20.2134        201
  20.2320        205
  20.2506        198
  20.2691        191
  20.2877        178
  20.3063        177
  20.3249        171
  20.3434        189
  20.3620        189
  20.3806        183
  20.3992        188
  20.4177        192
  20.4363        215
  20.4549        179
  20.4735        166
