; (content of file Y:\Sam\Apurva-07-20-2022\puck1\ML_20220721_15_SJD_0_LaB6-4min.raw)
_FILEVERSION = 3
_SAMPLE = ML_20220721_15_SJD_0_LaB6-4min
_+SAMPLE = 
_SITE = USA
_USER = Administrator
_GONIOMETER_CODE = 20
; Goniometer : D8 theta/2theta, stage : Unknown
_ATTACHMENTS_CODE = 0
_GONIOMETER_RADIUS = 200.5
_FIXED_DIVSLIT = 0.6
_FIXED_SAMPLESLIT = 0
_SOLLER_SLITS = 2
_FIXED_DETSLIT = 9.55
_MONOCHROMATOR = 0
; Incident beam monochromator : None
_SOLLER_SLITS_2 = N
_THIN_FILM = N
_BETA_FILTER = Y
_FIXED_ANTISLIT = 5.89
_ANALYZER_CODE = 0
; Received beam analyzer : None
_DATEMEASURED = "25-Jul-2022 14:59:49"
_WL_UNIT = A
_WL1 = 1.5406
_WL2 = 1.54439
_WL3 = 1.39222
_WLRATIO = 0.5
_ANODE = Cu
_V4_INF_CREATOR = XRDWizard
_V4_INF_CREATOR_VERSION = V2.9.0.22
_V4_INF_WIZARD_VERSION = V2.9.0.22
_V4_INF_WIZARD_ADDINS = V2.9.0.22
_V4_INF_WIZARD_DOCTYPE = XRD
_V4_INF_OSUSER = McQueenLab
_V4_INF_USER = Administrator
_V4_INF_SITE = USA
_V4_INF_SAMPLEID = ML_20220721_15_SJD_0_LaB6-4min

; Data for range 1
_DRIVE = COUPLED
_STEPTIME = 11.28
_STEPSIZE = 0.0185756
_STEPMODE = C
_START = 5
_THETA = 2.5
_2THETA = 5
_KHI = 0
_PHI = 0
_X = 0
_Y = 0
_Z = 0
_DETECTOR = 5
; Detector type : Unknown
_DETECTORSLIT = unkn
_AUX1 = 0
_AUX2 = 0
_AUX3 = 0
_TIMESTARTED = 15
_TEMP_RATE = -1
_TEMP_DELAY = -1
_KV = 40
_MA = 40
_RANGE_WL = 1.5406
_3DPLANE = 0
_V4_ADDITIONALDETECTOR = 257
_V4_PSD2THETA = 3.3877
_V4_PSDCHANNEL1 = 0
_V4_PSDAPERTURE = 12.68
_V4_PSDTYPE = 5
_V4_PSDFIXED = 0
_V4_COUNTERS_MASK = 4096
_V4_DRIVES_MASK = 0
_V4_ENCODERS_MASK = 0
_2THETACOUNTS = 1
; 2THETA  PSD
   5.0000        298
   5.0186        273
   5.0372        254
   5.0557        252
   5.0743        246
   5.0929        257
   5.1115        264
   5.1300        259
   5.1486        265
   5.1672        270
   5.1858        255
   5.2043        294
   5.2229        252
   5.2415        250
   5.2601        263
   5.2786        256
   5.2972        246
   5.3158        236
   5.3344        239
   5.3529        229
   5.3715        217
   5.3901        258
   5.4087        239
   5.4272        216
   5.4458        227
   5.4644        227
   5.4830        236
   5.5015        245
   5.5201        239
   5.5387        230
   5.5573        234
   5.5758        226
   5.5944        223
   5.6130        223
   5.6316        221
   5.6501        204
   5.6687        195
   5.6873        221
   5.7059        232
   5.7244        229
   5.7430        212
   5.7616        214
   5.7802        233
   5.7988        216
   5.8173        207
   5.8359        216
   5.8545        200
   5.8731        208
   5.8916        231
   5.9102        193
   5.9288        198
   5.9474        239
   5.9659        181
   5.9845        223
   6.0031        183
   6.0217        189
   6.0402        201
   6.0588        179
   6.0774        210
   6.0960        205
   6.1145        185
   6.1331        202
   6.1517        212
   6.1703        194
   6.1888        212
   6.2074        202
   6.2260        191
   6.2446        183
   6.2631        182
   6.2817        190
   6.3003        209
   6.3189        165
   6.3374        180
   6.3560        195
   6.3746        181
   6.3932        175
   6.4117        175
   6.4303        157
   6.4489        209
   6.4675        201
   6.4860        160
   6.5046        195
   6.5232        197
   6.5418        204
   6.5604        170
   6.5789        170
   6.5975        188
   6.6161        196
   6.6347        194
   6.6532        178
   6.6718        178
   6.6904        158
   6.7090        168
   6.7275        170
   6.7461        176
   6.7647        160
   6.7833        173
   6.8018        169
   6.8204        154
   6.8390        174
   6.8576        173
   6.8761        153
   6.8947        153
   6.9133        179
   6.9319        182
   6.9504        176
   6.9690        149
   6.9876        166
   7.0062        150
   7.0247        184
   7.0433        175
   7.0619        147
   7.0805        157
   7.0990        195
   7.1176        160
   7.1362        160
   7.1548        156
   7.1733        144
   7.1919        171
   7.2105        164
   7.2291        193
   7.2476        149
   7.2662        160
   7.2848        155
   7.3034        155
   7.3220        161
   7.3405        148
   7.3591        142
   7.3777        167
   7.3963        145
   7.4148        184
   7.4334        166
   7.4520        165
   7.4706        156
   7.4891        159
   7.5077        163
   7.5263        189
   7.5449        171
   7.5634        177
   7.5820        197
   7.6006        187
   7.6192        184
   7.6377        142
   7.6563        180
   7.6749        178
   7.6935        171
   7.7120        192
   7.7306        177
   7.7492        178
   7.7678        178
   7.7863        200
   7.8049        208
   7.8235        188
   7.8421        180
   7.8606        181
   7.8792        192
   7.8978        172
   7.9164        190
   7.9349        185
   7.9535        170
   7.9721        200
   7.9907        188
   8.0092        188
   8.0278        175
   8.0464        178
   8.0650        178
   8.0835        157
   8.1021        190
   8.1207        208
   8.1393        193
   8.1579        202
   8.1764        203
   8.1950        206
   8.2136        206
   8.2322        206
   8.2507        184
   8.2693        179
   8.2879        208
   8.3065        169
   8.3250        210
   8.3436        187
   8.3622        174
   8.3808        191
   8.3993        196
   8.4179        175
   8.4365        215
   8.4551        202
   8.4736        202
   8.4922        187
   8.5108        212
   8.5294        184
   8.5479        216
   8.5665        184
   8.5851        202
   8.6037        198
   8.6222        209
   8.6408        228
   8.6594        199
   8.6780        193
   8.6965        201
   8.7151        222
   8.7337        214
   8.7523        213
   8.7708        205
   8.7894        193
   8.8080        201
   8.8266        231
   8.8451        196
   8.8637        209
   8.8823        189
   8.9009        196
   8.9195        226
   8.9380        206
   8.9566        201
   8.9752        197
   8.9938        215
   9.0123        200
   9.0309        218
   9.0495        242
   9.0681        230
   9.0866        192
   9.1052        215
   9.1238        213
   9.1424        196
   9.1609        219
   9.1795        246
   9.1981        220
   9.2167        223
   9.2352        201
   9.2538        237
   9.2724        227
   9.2910        216
   9.3095        237
   9.3281        222
   9.3467        219
   9.3653        201
   9.3838        232
   9.4024        196
   9.4210        218
   9.4396        213
   9.4581        223
   9.4767        223
   9.4953        219
   9.5139        227
   9.5324        213
   9.5510        232
   9.5696        251
   9.5882        233
   9.6067        211
   9.6253        248
   9.6439        254
   9.6625        221
   9.6811        220
   9.6996        217
   9.7182        202
   9.7368        219
   9.7554        206
   9.7739        238
   9.7925        237
   9.8111        244
   9.8297        252
   9.8482        266
   9.8668        266
   9.8854        258
   9.9040        264
   9.9225        225
   9.9411        266
   9.9597        225
   9.9783        241
   9.9968        230
  10.0154        274
  10.0340        264
  10.0526        230
  10.0711        260
  10.0897        231
  10.1083        245
  10.1269        244
  10.1454        236
  10.1640        256
  10.1826        255
  10.2012        249
  10.2197        227
  10.2383        231
  10.2569        244
  10.2755        240
  10.2940        231
  10.3126        220
  10.3312        253
  10.3498        268
  10.3683        241
  10.3869        241
  10.4055        237
  10.4241        243
  10.4427        225
  10.4612        223
  10.4798        228
  10.4984        244
  10.5170        237
  10.5355        247
  10.5541        282
  10.5727        254
  10.5913        226
  10.6098        214
  10.6284        220
  10.6470        235
  10.6656        245
  10.6841        273
  10.7027        255
  10.7213        207
  10.7399        232
  10.7584        238
  10.7770        237
  10.7956        240
  10.8142        241
  10.8327        230
  10.8513        233
  10.8699        221
  10.8885        249
  10.9070        229
  10.9256        239
  10.9442        219
  10.9628        276
  10.9813        228
  10.9999        258
  11.0185        233
  11.0371        229
  11.0556        210
  11.0742        210
  11.0928        254
  11.1114        240
  11.1299        226
  11.1485        240
  11.1671        248
  11.1857        238
  11.2043        221
  11.2228        242
  11.2414        250
  11.2600        246
  11.2786        233
  11.2971        224
  11.3157        210
  11.3343        252
  11.3529        237
  11.3714        230
  11.3900        257
  11.4086        259
  11.4272        253
  11.4457        250
  11.4643        250
  11.4829        238
  11.5015        266
  11.5200        251
  11.5386        233
  11.5572        244
  11.5758        253
  11.5943        232
  11.6129        234
  11.6315        226
  11.6501        232
  11.6686        236
  11.6872        240
  11.7058        253
  11.7244        256
  11.7429        244
  11.7615        227
  11.7801        225
  11.7987        228
  11.8172        244
  11.8358        262
  11.8544        235
  11.8730        231
  11.8915        223
  11.9101        230
  11.9287        232
  11.9473        221
  11.9659        221
  11.9844        222
  12.0030        235
  12.0216        247
  12.0402        211
  12.0587        241
  12.0773        256
  12.0959        235
  12.1145        228
  12.1330        252
  12.1516        249
  12.1702        218
  12.1888        222
  12.2073        228
  12.2259        240
  12.2445        243
  12.2631        236
  12.2816        237
  12.3002        206
  12.3188        235
  12.3374        228
  12.3559        216
  12.3745        227
  12.3931        202
  12.4117        229
  12.4302        216
  12.4488        225
  12.4674        228
  12.4860        206
  12.5045        240
  12.5231        227
  12.5417        232
  12.5603        255
  12.5788        227
  12.5974        233
  12.6160        231
  12.6346        211
  12.6531        223
  12.6717        218
  12.6903        237
  12.7089        207
  12.7274        237
  12.7460        209
  12.7646        202
  12.7832        196
  12.8018        206
  12.8203        205
  12.8389        200
  12.8575        196
  12.8761        218
  12.8946        216
  12.9132        237
  12.9318        193
  12.9504        213
  12.9689        203
  12.9875        235
  13.0061        191
  13.0247        221
  13.0432        195
  13.0618        203
  13.0804        218
  13.0990        185
  13.1175        185
  13.1361        218
  13.1547        198
  13.1733        201
  13.1918        223
  13.2104        192
  13.2290        234
  13.2476        237
  13.2661        217
  13.2847        217
  13.3033        183
  13.3219        201
  13.3404        206
  13.3590        228
  13.3776        213
  13.3962        210
  13.4147        187
  13.4333        218
  13.4519        201
  13.4705        198
  13.4890        199
  13.5076        211
  13.5262        188
  13.5448        190
  13.5634        211
  13.5819        189
  13.6005        205
  13.6191        204
  13.6377        199
  13.6562        183
  13.6748        186
  13.6934        166
  13.7120        183
  13.7305        173
  13.7491        190
  13.7677        174
  13.7863        180
  13.8048        189
  13.8234        197
  13.8420        198
  13.8606        189
  13.8791        167
  13.8977        173
  13.9163        171
  13.9349        205
  13.9534        182
  13.9720        177
  13.9906        184
  14.0092        175
  14.0277        219
  14.0463        219
  14.0649        169
  14.0835        176
  14.1020        170
  14.1206        198
  14.1392        198
  14.1578        182
  14.1763        169
  14.1949        169
  14.2135        200
  14.2321        203
  14.2506        208
  14.2692        189
  14.2878        158
  14.3064        181
  14.3250        188
  14.3435        192
  14.3621        184
  14.3807        160
  14.3993        196
  14.4178        184
  14.4364        193
  14.4550        170
  14.4736        171
  14.4921        166
  14.5107        173
  14.5293        176
  14.5479        178
  14.5664        169
  14.5850        174
  14.6036        196
  14.6222        192
  14.6407        180
  14.6593        182
  14.6779        173
  14.6965        203
  14.7150        175
  14.7336        194
  14.7522        166
  14.7708        189
  14.7893        168
  14.8079        153
  14.8265        171
  14.8451        169
  14.8636        150
  14.8822        162
  14.9008        161
  14.9194        170
  14.9379        182
  14.9565        157
  14.9751        146
  14.9937        198
  15.0122        173
  15.0308        161
  15.0494        165
  15.0680        153
  15.0866        181
  15.1051        176
  15.1237        161
  15.1423        152
  15.1609        166
  15.1794        170
  15.1980        178
  15.2166        179
  15.2352        184
  15.2537        150
  15.2723        172
  15.2909        181
  15.3095        153
  15.3280        162
  15.3466        157
  15.3652        162
  15.3838        195
  15.4023        181
  15.4209        174
  15.4395        172
  15.4581        151
  15.4766        166
  15.4952        167
  15.5138        164
  15.5324        170
  15.5509        186
  15.5695        162
  15.5881        141
  15.6067        166
  15.6252        175
  15.6438        152
  15.6624        155
  15.6810        186
  15.6995        168
  15.7181        180
  15.7367        158
  15.7553        157
  15.7738        158
  15.7924        164
  15.8110        150
  15.8296        156
  15.8482        173
  15.8667        182
  15.8853        148
  15.9039        176
  15.9225        172
  15.9410        147
  15.9596        167
  15.9782        149
  15.9968        158
  16.0153        181
  16.0339        176
  16.0525        184
  16.0711        188
  16.0896        166
  16.1082        155
  16.1268        152
  16.1454        158
  16.1639        181
  16.1825        184
  16.2011        193
  16.2197        132
  16.2382        177
  16.2568        191
  16.2754        159
  16.2940        155
  16.3125        155
  16.3311        170
  16.3497        147
  16.3683        170
  16.3868        161
  16.4054        148
  16.4240        154
  16.4426        175
  16.4611        144
  16.4797        170
  16.4983        162
  16.5169        176
  16.5354        182
  16.5540        175
  16.5726        177
  16.5912        172
  16.6097        168
  16.6283        171
  16.6469        170
  16.6655        174
  16.6841        130
  16.7026        164
  16.7212        196
  16.7398        171
  16.7584        179
  16.7769        147
  16.7955        173
  16.8141        168
  16.8327        156
  16.8512        143
  16.8698        159
  16.8884        166
  16.9070        185
  16.9255        174
  16.9441        178
  16.9627        157
  16.9813        176
  16.9998        173
  17.0184        167
  17.0370        171
  17.0556        157
  17.0741        164
  17.0927        171
  17.1113        160
  17.1299        178
  17.1484        193
  17.1670        165
  17.1856        180
  17.2042        157
  17.2227        169
  17.2413        153
  17.2599        140
  17.2785        160
  17.2970        169
  17.3156        170
  17.3342        166
  17.3528        169
  17.3713        160
  17.3899        179
  17.4085        152
  17.4271        157
  17.4457        176
  17.4642        153
  17.4828        198
  17.5014        143
  17.5200        154
  17.5385        146
  17.5571        182
  17.5757        176
  17.5943        142
  17.6128        176
  17.6314        174
  17.6500        180
  17.6686        144
  17.6871        167
  17.7057        145
  17.7243        162
  17.7429        163
  17.7614        169
  17.7800        168
  17.7986        163
  17.8172        161
  17.8357        169
  17.8543        194
  17.8729        174
  17.8915        139
  17.9100        159
  17.9286        178
  17.9472        183
  17.9658        149
  17.9843        167
  18.0029        176
  18.0215        175
  18.0401        198
  18.0586        170
  18.0772        178
  18.0958        165
  18.1144        174
  18.1329        177
  18.1515        169
  18.1701        167
  18.1887        170
  18.2073        160
  18.2258        185
  18.2444        148
  18.2630        172
  18.2816        177
  18.3001        168
  18.3187        181
  18.3373        161
  18.3559        148
  18.3744        145
  18.3930        168
  18.4116        161
  18.4302        164
  18.4487        173
  18.4673        157
  18.4859        172
  18.5045        153
  18.5230        167
  18.5416        149
  18.5602        168
  18.5788        171
  18.5973        173
  18.6159        172
  18.6345        186
  18.6531        156
  18.6716        177
  18.6902        182
  18.7088        189
  18.7274        188
  18.7459        161
  18.7645        163
  18.7831        165
  18.8017        169
  18.8202        183
  18.8388        189
  18.8574        164
  18.8760        174
  18.8945        152
  18.9131        170
  18.9317        183
  18.9503        155
  18.9689        189
  18.9874        174
  19.0060        150
  19.0246        157
  19.0432        184
  19.0617        188
  19.0803        183
  19.0989        175
  19.1175        167
  19.1360        169
  19.1546        185
  19.1732        180
  19.1918        191
  19.2103        175
  19.2289        184
  19.2475        168
  19.2661        182
  19.2846        201
  19.3032        176
  19.3218        176
  19.3404        167
  19.3589        169
  19.3775        199
  19.3961        148
  19.4147        166
  19.4332        178
  19.4518        171
  19.4704        194
  19.4890        151
  19.5075        145
  19.5261        166
  19.5447        169
  19.5633        180
  19.5818        164
  19.6004        181
  19.6190        198
  19.6376        162
  19.6561        201
  19.6747        179
  19.6933        164
  19.7119        180
  19.7305        162
  19.7490        172
  19.7676        181
  19.7862        171
  19.8048        188
  19.8233        174
  19.8419        197
  19.8605        171
  19.8791        175
  19.8976        198
  19.9162        164
  19.9348        185
  19.9534        158
  19.9719        206
  19.9905        169
  20.0091        181
  20.0277        195
  20.0462        197
  20.0648        185
  20.0834        182
  20.1020        187
  20.1205        177
  20.1391        168
  20.1577        168
  20.1763        185
  20.1948        169
  20.2134        177
  20.2320        172
  20.2506        183
  20.2691        198
  20.2877        219
  20.3063        189
  20.3249        181
  20.3434        190
  20.3620        196
  20.3806        196
  20.3992        163
  20.4177        184
  20.4363        214
  20.4549        198
  20.4735        189
