; (content of file Y:\Sam\Apurva-07-20-2022\puck1\ML_20220721_17_SJD_0_LaB6-4min.raw)
_FILEVERSION = 3
_SAMPLE = ML_20220721_17_SJD_0_LaB6-4min
_+SAMPLE = 
_SITE = USA
_USER = Administrator
_GONIOMETER_CODE = 20
; Goniometer : D8 theta/2theta, stage : Unknown
_ATTACHMENTS_CODE = 0
_GONIOMETER_RADIUS = 200.5
_FIXED_DIVSLIT = 0.6
_FIXED_SAMPLESLIT = 0
_SOLLER_SLITS = 2
_FIXED_DETSLIT = 9.55
_MONOCHROMATOR = 0
; Incident beam monochromator : None
_SOLLER_SLITS_2 = N
_THIN_FILM = N
_BETA_FILTER = Y
_FIXED_ANTISLIT = 5.89
_ANALYZER_CODE = 0
; Received beam analyzer : None
_DATEMEASURED = "25-Jul-2022 15:08:46"
_WL_UNIT = A
_WL1 = 1.5406
_WL2 = 1.54439
_WL3 = 1.39222
_WLRATIO = 0.5
_ANODE = Cu
_V4_INF_CREATOR = XRDWizard
_V4_INF_CREATOR_VERSION = V2.9.0.22
_V4_INF_WIZARD_VERSION = V2.9.0.22
_V4_INF_WIZARD_ADDINS = V2.9.0.22
_V4_INF_WIZARD_DOCTYPE = XRD
_V4_INF_OSUSER = McQueenLab
_V4_INF_USER = Administrator
_V4_INF_SITE = USA
_V4_INF_SAMPLEID = ML_20220721_17_SJD_0_LaB6-4min

; Data for range 1
_DRIVE = COUPLED
_STEPTIME = 11.28
_STEPSIZE = 0.0185756
_STEPMODE = C
_START = 5
_THETA = 2.5
_2THETA = 5
_KHI = 0
_PHI = 0
_X = 0
_Y = 0
_Z = 0
_DETECTOR = 5
; Detector type : Unknown
_DETECTORSLIT = unkn
_AUX1 = 0
_AUX2 = 0
_AUX3 = 0
_TIMESTARTED = 15
_TEMP_RATE = -1
_TEMP_DELAY = -1
_KV = 40
_MA = 40
_RANGE_WL = 1.5406
_3DPLANE = 0
_V4_ADDITIONALDETECTOR = 257
_V4_PSD2THETA = 3.3673
_V4_PSDCHANNEL1 = 0
_V4_PSDAPERTURE = 12.68
_V4_PSDTYPE = 5
_V4_PSDFIXED = 0
_V4_COUNTERS_MASK = 4096
_V4_DRIVES_MASK = 0
_V4_ENCODERS_MASK = 0
_2THETACOUNTS = 1
; 2THETA  PSD
   5.0000        284
   5.0186        268
   5.0372        250
   5.0557        248
   5.0743        242
   5.0929        261
   5.1115        251
   5.1300        270
   5.1486        277
   5.1672        263
   5.1858        263
   5.2043        272
   5.2229        243
   5.2415        235
   5.2601        250
   5.2786        252
   5.2972        261
   5.3158        219
   5.3344        233
   5.3529        237
   5.3715        226
   5.3901        234
   5.4087        254
   5.4272        205
   5.4458        211
   5.4644        261
   5.4830        217
   5.5015        224
   5.5201        244
   5.5387        231
   5.5573        216
   5.5758        212
   5.5944        219
   5.6130        242
   5.6316        207
   5.6501        215
   5.6687        228
   5.6873        206
   5.7059        215
   5.7244        209
   5.7430        225
   5.7616        213
   5.7802        226
   5.7988        214
   5.8173        213
   5.8359        214
   5.8545        196
   5.8731        210
   5.8916        185
   5.9102        201
   5.9288        199
   5.9474        212
   5.9659        224
   5.9845        184
   6.0031        219
   6.0217        209
   6.0402        166
   6.0588        198
   6.0774        215
   6.0960        216
   6.1145        182
   6.1331        215
   6.1517        201
   6.1703        182
   6.1888        175
   6.2074        190
   6.2260        191
   6.2446        188
   6.2631        188
   6.2817        179
   6.3003        203
   6.3189        199
   6.3374        208
   6.3560        168
   6.3746        187
   6.3932        200
   6.4117        193
   6.4303        190
   6.4489        155
   6.4675        174
   6.4860        196
   6.5046        168
   6.5232        166
   6.5418        185
   6.5604        172
   6.5789        181
   6.5975        186
   6.6161        186
   6.6347        189
   6.6532        180
   6.6718        171
   6.6904        181
   6.7090        185
   6.7275        189
   6.7461        178
   6.7647        176
   6.7833        192
   6.8018        156
   6.8204        146
   6.8390        170
   6.8576        155
   6.8761        161
   6.8947        163
   6.9133        159
   6.9319        168
   6.9504        163
   6.9690        166
   6.9876        187
   7.0062        168
   7.0247        151
   7.0433        156
   7.0619        173
   7.0805        164
   7.0990        152
   7.1176        151
   7.1362        137
   7.1548        166
   7.1733        169
   7.1919        170
   7.2105        165
   7.2291        173
   7.2476        137
   7.2662        153
   7.2848        169
   7.3034        159
   7.3220        146
   7.3405        146
   7.3591        195
   7.3777        174
   7.3963        165
   7.4148        170
   7.4334        163
   7.4520        168
   7.4706        155
   7.4891        144
   7.5077        158
   7.5263        148
   7.5449        182
   7.5634        161
   7.5820        150
   7.6006        178
   7.6192        176
   7.6377        178
   7.6563        161
   7.6749        199
   7.6935        173
   7.7120        167
   7.7306        159
   7.7492        192
   7.7678        171
   7.7863        182
   7.8049        179
   7.8235        193
   7.8421        203
   7.8606        184
   7.8792        176
   7.8978        171
   7.9164        169
   7.9349        177
   7.9535        157
   7.9721        179
   7.9907        171
   8.0092        186
   8.0278        175
   8.0464        219
   8.0650        201
   8.0835        212
   8.1021        200
   8.1207        185
   8.1393        209
   8.1579        197
   8.1764        174
   8.1950        176
   8.2136        201
   8.2322        197
   8.2507        187
   8.2693        204
   8.2879        195
   8.3065        212
   8.3250        211
   8.3436        185
   8.3622        190
   8.3808        194
   8.3993        188
   8.4179        203
   8.4365        171
   8.4551        189
   8.4736        205
   8.4922        188
   8.5108        188
   8.5294        174
   8.5479        183
   8.5665        204
   8.5851        231
   8.6037        215
   8.6222        201
   8.6408        224
   8.6594        209
   8.6780        176
   8.6965        209
   8.7151        194
   8.7337        203
   8.7523        181
   8.7708        244
   8.7894        215
   8.8080        211
   8.8266        217
   8.8451        222
   8.8637        187
   8.8823        205
   8.9009        215
   8.9195        221
   8.9380        201
   8.9566        182
   8.9752        191
   8.9938        225
   9.0123        227
   9.0309        220
   9.0495        203
   9.0681        215
   9.0866        208
   9.1052        239
   9.1238        220
   9.1424        227
   9.1609        214
   9.1795        226
   9.1981        221
   9.2167        206
   9.2352        215
   9.2538        237
   9.2724        226
   9.2910        201
   9.3095        230
   9.3281        237
   9.3467        234
   9.3653        212
   9.3838        224
   9.4024        242
   9.4210        243
   9.4396        225
   9.4581        206
   9.4767        248
   9.4953        226
   9.5139        245
   9.5324        192
   9.5510        210
   9.5696        210
   9.5882        209
   9.6067        230
   9.6253        236
   9.6439        230
   9.6625        231
   9.6811        236
   9.6996        235
   9.7182        219
   9.7368        233
   9.7554        226
   9.7739        209
   9.7925        222
   9.8111        224
   9.8297        218
   9.8482        253
   9.8668        223
   9.8854        229
   9.9040        226
   9.9225        222
   9.9411        258
   9.9597        230
   9.9783        238
   9.9968        252
  10.0154        247
  10.0340        217
  10.0526        255
  10.0711        266
  10.0897        247
  10.1083        222
  10.1269        251
  10.1454        231
  10.1640        270
  10.1826        234
  10.2012        233
  10.2197        218
  10.2383        237
  10.2569        259
  10.2755        234
  10.2940        254
  10.3126        231
  10.3312        219
  10.3498        259
  10.3683        239
  10.3869        232
  10.4055        262
  10.4241        285
  10.4427        259
  10.4612        233
  10.4798        254
  10.4984        257
  10.5170        232
  10.5355        247
  10.5541        222
  10.5727        260
  10.5913        241
  10.6098        242
  10.6284        251
  10.6470        244
  10.6656        220
  10.6841        274
  10.7027        221
  10.7213        240
  10.7399        258
  10.7584        247
  10.7770        231
  10.7956        243
  10.8142        233
  10.8327        266
  10.8513        238
  10.8699        230
  10.8885        230
  10.9070        251
  10.9256        227
  10.9442        236
  10.9628        254
  10.9813        225
  10.9999        222
  11.0185        255
  11.0371        244
  11.0556        242
  11.0742        240
  11.0928        229
  11.1114        250
  11.1299        238
  11.1485        262
  11.1671        237
  11.1857        225
  11.2043        234
  11.2228        215
  11.2414        243
  11.2600        235
  11.2786        265
  11.2971        238
  11.3157        221
  11.3343        238
  11.3529        245
  11.3714        257
  11.3900        255
  11.4086        250
  11.4272        234
  11.4457        237
  11.4643        227
  11.4829        237
  11.5015        230
  11.5200        236
  11.5386        241
  11.5572        259
  11.5758        234
  11.5943        223
  11.6129        250
  11.6315        263
  11.6501        238
  11.6686        223
  11.6872        217
  11.7058        238
  11.7244        220
  11.7429        228
  11.7615        250
  11.7801        233
  11.7987        231
  11.8172        231
  11.8358        246
  11.8544        226
  11.8730        208
  11.8915        228
  11.9101        215
  11.9287        262
  11.9473        246
  11.9659        233
  11.9844        221
  12.0030        231
  12.0216        231
  12.0402        251
  12.0587        212
  12.0773        224
  12.0959        217
  12.1145        241
  12.1330        241
  12.1516        206
  12.1702        219
  12.1888        244
  12.2073        221
  12.2259        259
  12.2445        213
  12.2631        233
  12.2816        212
  12.3002        221
  12.3188        201
  12.3374        236
  12.3559        221
  12.3745        226
  12.3931        198
  12.4117        190
  12.4302        227
  12.4488        207
  12.4674        246
  12.4860        225
  12.5045        217
  12.5231        197
  12.5417        244
  12.5603        225
  12.5788        220
  12.5974        243
  12.6160        184
  12.6346        195
  12.6531        215
  12.6717        221
  12.6903        218
  12.7089        203
  12.7274        211
  12.7460        208
  12.7646        227
  12.7832        222
  12.8018        212
  12.8203        223
  12.8389        221
  12.8575        206
  12.8761        211
  12.8946        212
  12.9132        199
  12.9318        223
  12.9504        199
  12.9689        208
  12.9875        195
  13.0061        181
  13.0247        186
  13.0432        212
  13.0618        214
  13.0804        196
  13.0990        204
  13.1175        227
  13.1361        209
  13.1547        196
  13.1733        199
  13.1918        204
  13.2104        196
  13.2290        194
  13.2476        210
  13.2661        182
  13.2847        198
  13.3033        214
  13.3219        189
  13.3404        188
  13.3590        207
  13.3776        235
  13.3962        204
  13.4147        189
  13.4333        210
  13.4519        204
  13.4705        209
  13.4890        197
  13.5076        241
  13.5262        212
  13.5448        194
  13.5634        213
  13.5819        188
  13.6005        184
  13.6191        188
  13.6377        205
  13.6562        207
  13.6748        206
  13.6934        159
  13.7120        178
  13.7305        169
  13.7491        187
  13.7677        198
  13.7863        202
  13.8048        189
  13.8234        177
  13.8420        193
  13.8606        174
  13.8791        200
  13.8977        198
  13.9163        192
  13.9349        169
  13.9534        164
  13.9720        190
  13.9906        198
  14.0092        204
  14.0277        166
  14.0463        186
  14.0649        186
  14.0835        177
  14.1020        183
  14.1206        184
  14.1392        181
  14.1578        175
  14.1763        164
  14.1949        188
  14.2135        173
  14.2321        190
  14.2506        194
  14.2692        171
  14.2878        205
  14.3064        183
  14.3250        189
  14.3435        177
  14.3621        177
  14.3807        164
  14.3993        173
  14.4178        160
  14.4364        176
  14.4550        195
  14.4736        163
  14.4921        165
  14.5107        162
  14.5293        149
  14.5479        175
  14.5664        160
  14.5850        154
  14.6036        150
  14.6222        182
  14.6407        169
  14.6593        175
  14.6779        196
  14.6965        176
  14.7150        173
  14.7336        199
  14.7522        188
  14.7708        169
  14.7893        185
  14.8079        152
  14.8265        164
  14.8451        176
  14.8636        164
  14.8822        154
  14.9008        190
  14.9194        171
  14.9379        173
  14.9565        178
  14.9751        156
  14.9937        185
  15.0122        169
  15.0308        174
  15.0494        152
  15.0680        152
  15.0866        168
  15.1051        144
  15.1237        171
  15.1423        169
  15.1609        176
  15.1794        155
  15.1980        155
  15.2166        164
  15.2352        183
  15.2537        151
  15.2723        136
  15.2909        174
  15.3095        193
  15.3280        156
  15.3466        176
  15.3652        169
  15.3838        172
  15.4023        148
  15.4209        182
  15.4395        163
  15.4581        133
  15.4766        181
  15.4952        181
  15.5138        188
  15.5324        166
  15.5509        173
  15.5695        167
  15.5881        180
  15.6067        172
  15.6252        159
  15.6438        165
  15.6624        189
  15.6810        178
  15.6995        160
  15.7181        154
  15.7367        171
  15.7553        168
  15.7738        164
  15.7924        171
  15.8110        159
  15.8296        181
  15.8482        173
  15.8667        163
  15.8853        166
  15.9039        172
  15.9225        164
  15.9410        185
  15.9596        164
  15.9782        164
  15.9968        176
  16.0153        188
  16.0339        172
  16.0525        160
  16.0711        136
  16.0896        151
  16.1082        160
  16.1268        151
  16.1454        146
  16.1639        149
  16.1825        150
  16.2011        159
  16.2197        165
  16.2382        154
  16.2568        183
  16.2754        173
  16.2940        187
  16.3125        153
  16.3311        165
  16.3497        167
  16.3683        170
  16.3868        179
  16.4054        175
  16.4240        158
  16.4426        169
  16.4611        142
  16.4797        156
  16.4983        167
  16.5169        148
  16.5354        168
  16.5540        183
  16.5726        175
  16.5912        173
  16.6097        156
  16.6283        153
  16.6469        166
  16.6655        147
  16.6841        158
  16.7026        168
  16.7212        164
  16.7398        179
  16.7584        171
  16.7769        155
  16.7955        175
  16.8141        152
  16.8327        148
  16.8512        164
  16.8698        163
  16.8884        147
  16.9070        156
  16.9255        140
  16.9441        159
  16.9627        135
  16.9813        171
  16.9998        174
  17.0184        139
  17.0370        186
  17.0556        170
  17.0741        151
  17.0927        170
  17.1113        170
  17.1299        151
  17.1484        174
  17.1670        143
  17.1856        179
  17.2042        155
  17.2227        145
  17.2413        146
  17.2599        173
  17.2785        174
  17.2970        148
  17.3156        142
  17.3342        157
  17.3528        168
  17.3713        169
  17.3899        160
  17.4085        162
  17.4271        181
  17.4457        150
  17.4642        158
  17.4828        167
  17.5014        166
  17.5200        162
  17.5385        167
  17.5571        167
  17.5757        148
  17.5943        177
  17.6128        158
  17.6314        182
  17.6500        150
  17.6686        191
  17.6871        162
  17.7057        159
  17.7243        167
  17.7429        153
  17.7614        176
  17.7800        175
  17.7986        173
  17.8172        173
  17.8357        150
  17.8543        156
  17.8729        162
  17.8915        183
  17.9100        153
  17.9286        148
  17.9472        168
  17.9658        167
  17.9843        167
  18.0029        176
  18.0215        122
  18.0401        153
  18.0586        138
  18.0772        169
  18.0958        163
  18.1144        154
  18.1329        185
  18.1515        174
  18.1701        180
  18.1887        153
  18.2073        154
  18.2258        170
  18.2444        167
  18.2630        173
  18.2816        188
  18.3001        191
  18.3187        159
  18.3373        205
  18.3559        145
  18.3744        162
  18.3930        151
  18.4116        168
  18.4302        168
  18.4487        139
  18.4673        150
  18.4859        170
  18.5045        161
  18.5230        188
  18.5416        166
  18.5602        178
  18.5788        157
  18.5973        153
  18.6159        175
  18.6345        172
  18.6531        163
  18.6716        171
  18.6902        171
  18.7088        163
  18.7274        174
  18.7459        189
  18.7645        149
  18.7831        151
  18.8017        169
  18.8202        183
  18.8388        176
  18.8574        161
  18.8760        171
  18.8945        178
  18.9131        160
  18.9317        192
  18.9503        143
  18.9689        192
  18.9874        193
  19.0060        177
  19.0246        189
  19.0432        148
  19.0617        166
  19.0803        183
  19.0989        191
  19.1175        154
  19.1360        191
  19.1546        174
  19.1732        172
  19.1918        161
  19.2103        179
  19.2289        186
  19.2475        195
  19.2661        167
  19.2846        176
  19.3032        173
  19.3218        177
  19.3404        170
  19.3589        168
  19.3775        176
  19.3961        169
  19.4147        180
  19.4332        141
  19.4518        172
  19.4704        182
  19.4890        172
  19.5075        155
  19.5261        172
  19.5447        174
  19.5633        168
  19.5818        167
  19.6004        180
  19.6190        165
  19.6376        149
  19.6561        175
  19.6747        188
  19.6933        167
  19.7119        180
  19.7305        173
  19.7490        193
  19.7676        185
  19.7862        197
  19.8048        198
  19.8233        172
  19.8419        156
  19.8605        163
  19.8791        199
  19.8976        199
  19.9162        194
  19.9348        179
  19.9534        170
  19.9719        173
  19.9905        179
  20.0091        170
  20.0277        167
  20.0462        172
  20.0648        202
  20.0834        195
  20.1020        187
  20.1205        165
  20.1391        193
  20.1577        188
  20.1763        179
  20.1948        186
  20.2134        189
  20.2320        164
  20.2506        203
  20.2691        171
  20.2877        190
  20.3063        173
  20.3249        185
  20.3434        173
  20.3620        172
  20.3806        179
  20.3992        170
  20.4177        183
  20.4363        189
  20.4549        199
  20.4735        184
