; (content of file Y:\Sam\Apurva-07-20-2022\puck4\ML_20220718_41_SJD_4_LaB6-2min.raw)
_FILEVERSION = 3
_SAMPLE = ML_20220718_41_SJD_4_LaB6-2min
_+SAMPLE = 
_SITE = USA
_USER = Administrator
_GONIOMETER_CODE = 20
; Goniometer : D8 theta/2theta, stage : Unknown
_ATTACHMENTS_CODE = 0
_GONIOMETER_RADIUS = 200.5
_FIXED_DIVSLIT = 0.6
_FIXED_SAMPLESLIT = 0
_SOLLER_SLITS = 2
_FIXED_DETSLIT = 9.55
_MONOCHROMATOR = 0
; Incident beam monochromator : None
_SOLLER_SLITS_2 = N
_THIN_FILM = N
_BETA_FILTER = Y
_FIXED_ANTISLIT = 5.89
_ANALYZER_CODE = 0
; Received beam analyzer : None
_DATEMEASURED = "26-Jul-2022 12:06:07"
_WL_UNIT = A
_WL1 = 1.5406
_WL2 = 1.54439
_WL3 = 1.39222
_WLRATIO = 0.5
_ANODE = Cu
_V4_INF_CREATOR = XRDWizard
_V4_INF_CREATOR_VERSION = V2.9.0.22
_V4_INF_WIZARD_VERSION = V2.9.0.22
_V4_INF_WIZARD_ADDINS = V2.9.0.22
_V4_INF_WIZARD_DOCTYPE = XRD
_V4_INF_OSUSER = McQueenLab
_V4_INF_USER = Administrator
_V4_INF_SITE = USA
_V4_INF_SAMPLEID = ML_20220718_41_SJD_4_LaB6-2min

; Data for range 1
_DRIVE = COUPLED
_STEPTIME = 5.64
_STEPSIZE = 0.0185756
_STEPMODE = C
_START = 5
_THETA = 2.5
_2THETA = 5
_KHI = 0
_PHI = 0
_X = 0
_Y = 0
_Z = 0
_DETECTOR = 5
; Detector type : Unknown
_DETECTORSLIT = unkn
_AUX1 = 0
_AUX2 = 0
_AUX3 = 0
_TIMESTARTED = 15
_TEMP_RATE = -1
_TEMP_DELAY = -1
_KV = 40
_MA = 40
_RANGE_WL = 1.5406
_3DPLANE = 0
_V4_ADDITIONALDETECTOR = 257
_V4_PSD2THETA = 3.3706
_V4_PSDCHANNEL1 = 0
_V4_PSDAPERTURE = 12.68
_V4_PSDTYPE = 5
_V4_PSDFIXED = 0
_V4_COUNTERS_MASK = 4096
_V4_DRIVES_MASK = 0
_V4_ENCODERS_MASK = 0
_2THETACOUNTS = 1
; 2THETA  PSD
   5.0000        126
   5.0186        163
   5.0372        113
   5.0557        108
   5.0743        127
   5.0929        117
   5.1115        125
   5.1300        118
   5.1486        120
   5.1672        139
   5.1858        117
   5.2043        118
   5.2229        129
   5.2415        130
   5.2601        126
   5.2786        130
   5.2972        125
   5.3158        122
   5.3344        120
   5.3529        101
   5.3715        120
   5.3901        127
   5.4087        128
   5.4272        127
   5.4458        114
   5.4644        110
   5.4830        111
   5.5015        107
   5.5201        106
   5.5387        112
   5.5573        115
   5.5758        125
   5.5944        104
   5.6130        128
   5.6316         95
   5.6501        115
   5.6687        113
   5.6873         94
   5.7059        104
   5.7244        113
   5.7430        102
   5.7616         94
   5.7802        110
   5.7988         92
   5.8173        102
   5.8359        108
   5.8545        120
   5.8731        101
   5.8916         91
   5.9102         88
   5.9288        123
   5.9474        106
   5.9659        107
   5.9845         90
   6.0031        103
   6.0217         91
   6.0402        103
   6.0588         95
   6.0774         88
   6.0960         98
   6.1145         98
   6.1331         96
   6.1517         95
   6.1703         85
   6.1888         97
   6.2074         94
   6.2260         87
   6.2446        104
   6.2631        107
   6.2817         98
   6.3003         99
   6.3189         83
   6.3374         90
   6.3560         77
   6.3746         84
   6.3932        100
   6.4117         91
   6.4303         94
   6.4489         85
   6.4675         89
   6.4860         77
   6.5046        122
   6.5232         92
   6.5418         69
   6.5604         76
   6.5789         85
   6.5975         98
   6.6161         94
   6.6347         75
   6.6532         70
   6.6718         92
   6.6904         76
   6.7090        105
   6.7275         81
   6.7461         84
   6.7647         77
   6.7833         86
   6.8018         86
   6.8204         79
   6.8390         81
   6.8576         75
   6.8761         77
   6.8947         81
   6.9133         90
   6.9319         76
   6.9504         72
   6.9690         82
   6.9876         97
   7.0062         67
   7.0247         75
   7.0433         97
   7.0619         76
   7.0805         83
   7.0990         77
   7.1176         70
   7.1362         77
   7.1548         73
   7.1733         83
   7.1919         77
   7.2105         86
   7.2291         82
   7.2476         77
   7.2662         70
   7.2848         81
   7.3034         74
   7.3220         84
   7.3405         80
   7.3591         81
   7.3777         75
   7.3963         68
   7.4148         77
   7.4334         76
   7.4520         94
   7.4706         76
   7.4891         89
   7.5077         82
   7.5263         95
   7.5449         88
   7.5634         85
   7.5820         86
   7.6006         82
   7.6192         84
   7.6377         82
   7.6563         99
   7.6749         74
   7.6935         75
   7.7120         76
   7.7306         99
   7.7492         78
   7.7678         92
   7.7863         73
   7.8049         98
   7.8235         84
   7.8421         93
   7.8606         77
   7.8792         93
   7.8978         95
   7.9164         78
   7.9349         95
   7.9535         99
   7.9721        104
   7.9907         95
   8.0092         93
   8.0278        101
   8.0464         88
   8.0650        103
   8.0835         95
   8.1021         93
   8.1207         91
   8.1393         90
   8.1579         96
   8.1764         85
   8.1950         98
   8.2136         94
   8.2322         97
   8.2507        109
   8.2693        102
   8.2879         96
   8.3065         75
   8.3250         94
   8.3436        108
   8.3622         89
   8.3808         96
   8.3993        113
   8.4179         92
   8.4365         97
   8.4551        116
   8.4736        107
   8.4922         87
   8.5108        112
   8.5294         92
   8.5479         86
   8.5665        117
   8.5851         91
   8.6037         97
   8.6222        105
   8.6408         87
   8.6594        102
   8.6780         94
   8.6965        110
   8.7151        103
   8.7337         95
   8.7523         93
   8.7708        110
   8.7894         93
   8.8080        109
   8.8266        128
   8.8451        128
   8.8637        105
   8.8823        103
   8.9009         97
   8.9195         96
   8.9380        110
   8.9566        107
   8.9752         96
   8.9938        104
   9.0123         90
   9.0309         83
   9.0495        116
   9.0681        100
   9.0866        114
   9.1052        105
   9.1238        106
   9.1424         95
   9.1609        102
   9.1795        112
   9.1981         87
   9.2167        105
   9.2352        116
   9.2538        118
   9.2724        119
   9.2910         89
   9.3095         95
   9.3281        109
   9.3467        114
   9.3653         90
   9.3838        110
   9.4024        116
   9.4210        122
   9.4396        102
   9.4581        121
   9.4767         98
   9.4953        108
   9.5139        109
   9.5324        115
   9.5510        147
   9.5696        114
   9.5882        103
   9.6067        108
   9.6253        113
   9.6439        112
   9.6625        117
   9.6811        102
   9.6996        120
   9.7182        131
   9.7368        104
   9.7554        114
   9.7739        125
   9.7925        127
   9.8111        107
   9.8297        140
   9.8482        106
   9.8668        131
   9.8854        124
   9.9040        107
   9.9225        122
   9.9411        118
   9.9597        115
   9.9783        109
   9.9968        106
  10.0154        123
  10.0340        105
  10.0526        114
  10.0711        133
  10.0897        110
  10.1083        136
  10.1269        117
  10.1454        147
  10.1640        105
  10.1826        132
  10.2012        121
  10.2197        113
  10.2383        137
  10.2569        133
  10.2755        139
  10.2940        112
  10.3126        126
  10.3312        120
  10.3498        125
  10.3683        119
  10.3869        131
  10.4055        108
  10.4241        108
  10.4427        103
  10.4612        111
  10.4798        122
  10.4984        127
  10.5170        124
  10.5355        115
  10.5541        121
  10.5727        130
  10.5913        108
  10.6098        121
  10.6284        136
  10.6470        140
  10.6656        137
  10.6841        111
  10.7027        122
  10.7213        125
  10.7399        131
  10.7584        131
  10.7770        119
  10.7956        121
  10.8142        108
  10.8327        122
  10.8513        112
  10.8699        110
  10.8885        115
  10.9070        119
  10.9256         95
  10.9442         79
  10.9628        114
  10.9813        104
  10.9999        113
  11.0185        116
  11.0371        117
  11.0556        112
  11.0742        119
  11.0928        102
  11.1114        118
  11.1299        124
  11.1485        124
  11.1671        133
  11.1857        114
  11.2043        113
  11.2228        124
  11.2414        117
  11.2600        106
  11.2786        120
  11.2971        123
  11.3157        143
  11.3343        117
  11.3529        132
  11.3714        119
  11.3900        114
  11.4086        121
  11.4272        109
  11.4457        116
  11.4643        115
  11.4829        132
  11.5015        112
  11.5200        122
  11.5386        117
  11.5572        110
  11.5758        109
  11.5943        121
  11.6129         99
  11.6315        107
  11.6501        119
  11.6686        108
  11.6872        121
  11.7058        111
  11.7244        115
  11.7429        106
  11.7615        113
  11.7801        127
  11.7987        128
  11.8172        122
  11.8358        128
  11.8544        107
  11.8730        110
  11.8915        100
  11.9101        115
  11.9287        115
  11.9473        126
  11.9659        119
  11.9844        134
  12.0030        101
  12.0216        113
  12.0402        107
  12.0587        101
  12.0773         99
  12.0959        118
  12.1145        127
  12.1330         99
  12.1516        125
  12.1702        111
  12.1888        117
  12.2073        106
  12.2259        104
  12.2445        107
  12.2631        102
  12.2816         99
  12.3002        104
  12.3188        118
  12.3374        105
  12.3559        110
  12.3745         95
  12.3931        109
  12.4117        125
  12.4302        103
  12.4488         95
  12.4674        117
  12.4860        107
  12.5045        117
  12.5231        105
  12.5417        119
  12.5603        102
  12.5788        113
  12.5974        109
  12.6160        102
  12.6346        107
  12.6531        110
  12.6717         85
  12.6903         98
  12.7089        111
  12.7274        103
  12.7460        109
  12.7646        103
  12.7832        100
  12.8018         91
  12.8203        105
  12.8389         95
  12.8575         95
  12.8761        112
  12.8946        125
  12.9132        107
  12.9318        101
  12.9504        108
  12.9689        114
  12.9875        106
  13.0061         94
  13.0247        101
  13.0432        119
  13.0618        100
  13.0804         86
  13.0990        111
  13.1175         93
  13.1361        105
  13.1547        105
  13.1733        103
  13.1918        102
  13.2104         93
  13.2290        107
  13.2476         88
  13.2661         97
  13.2847        104
  13.3033        106
  13.3219         92
  13.3404         99
  13.3590         96
  13.3776        115
  13.3962        108
  13.4147         85
  13.4333         92
  13.4519         94
  13.4705        106
  13.4890         81
  13.5076         90
  13.5262        102
  13.5448         87
  13.5634         93
  13.5819         97
  13.6005         84
  13.6191         73
  13.6377         90
  13.6562         96
  13.6748         92
  13.6934         90
  13.7120         96
  13.7305         98
  13.7491         95
  13.7677         97
  13.7863         96
  13.8048        102
  13.8234         98
  13.8420         86
  13.8606         81
  13.8791         68
  13.8977         76
  13.9163         92
  13.9349         85
  13.9534         86
  13.9720        102
  13.9906         96
  14.0092         84
  14.0277        107
  14.0463         93
  14.0649         85
  14.0835         95
  14.1020         96
  14.1206         93
  14.1392        114
  14.1578         87
  14.1763         95
  14.1949         88
  14.2135         92
  14.2321        101
  14.2506         82
  14.2692        104
  14.2878         85
  14.3064        110
  14.3250         94
  14.3435        101
  14.3621         94
  14.3807         99
  14.3993         77
  14.4178         64
  14.4364         75
  14.4550         94
  14.4736         97
  14.4921         85
  14.5107         85
  14.5293        103
  14.5479         70
  14.5664         91
  14.5850         84
  14.6036         79
  14.6222         88
  14.6407         99
  14.6593         90
  14.6779         95
  14.6965         80
  14.7150         67
  14.7336         89
  14.7522         86
  14.7708         79
  14.7893         89
  14.8079         84
  14.8265         92
  14.8451         87
  14.8636         82
  14.8822         81
  14.9008         71
  14.9194         88
  14.9379         82
  14.9565         79
  14.9751         78
  14.9937         73
  15.0122         90
  15.0308         91
  15.0494         81
  15.0680         88
  15.0866         76
  15.1051         99
  15.1237         78
  15.1423         89
  15.1609         72
  15.1794         69
  15.1980         82
  15.2166         83
  15.2352         79
  15.2537         80
  15.2723         73
  15.2909         68
  15.3095         92
  15.3280         74
  15.3466         68
  15.3652         64
  15.3838         90
  15.4023         79
  15.4209         84
  15.4395         83
  15.4581         76
  15.4766         91
  15.4952         83
  15.5138         92
  15.5324         87
  15.5509         71
  15.5695         70
  15.5881         78
  15.6067         70
  15.6252         89
  15.6438         85
  15.6624         79
  15.6810         89
  15.6995         94
  15.7181         78
  15.7367         89
  15.7553         72
  15.7738         74
  15.7924         77
  15.8110         71
  15.8296         82
  15.8482         80
  15.8667         65
  15.8853         65
  15.9039         83
  15.9225         93
  15.9410         80
  15.9596         91
  15.9782         85
  15.9968         87
  16.0153         88
  16.0339         89
  16.0525         66
  16.0711         78
  16.0896         72
  16.1082         76
  16.1268         84
  16.1454         85
  16.1639         78
  16.1825         92
  16.2011         67
  16.2197         79
  16.2382         82
  16.2568         93
  16.2754        100
  16.2940         89
  16.3125         69
  16.3311         83
  16.3497         57
  16.3683         67
  16.3868         60
  16.4054         85
  16.4240         93
  16.4426         74
  16.4611         76
  16.4797         86
  16.4983         82
  16.5169         73
  16.5354         67
  16.5540         80
  16.5726         92
  16.5912         82
  16.6097         80
  16.6283         82
  16.6469         84
  16.6655         84
  16.6841        107
  16.7026         78
  16.7212         75
  16.7398         77
  16.7584         84
  16.7769         79
  16.7955         66
  16.8141         73
  16.8327         65
  16.8512         81
  16.8698         82
  16.8884         94
  16.9070         68
  16.9255         77
  16.9441         90
  16.9627         83
  16.9813         87
  16.9998         94
  17.0184         81
  17.0370         88
  17.0556         87
  17.0741         94
  17.0927         90
  17.1113         79
  17.1299         86
  17.1484         79
  17.1670         79
  17.1856         78
  17.2042         71
  17.2227         77
  17.2413         85
  17.2599         78
  17.2785         87
  17.2970         82
  17.3156         76
  17.3342         94
  17.3528         75
  17.3713         71
  17.3899         83
  17.4085         71
  17.4271         82
  17.4457         81
  17.4642         95
  17.4828         67
  17.5014         75
  17.5200         84
  17.5385         76
  17.5571         64
  17.5757         75
  17.5943         77
  17.6128         78
  17.6314         90
  17.6500         88
  17.6686         69
  17.6871         77
  17.7057         69
  17.7243         85
  17.7429         70
  17.7614         71
  17.7800         76
  17.7986         83
  17.8172         78
  17.8357         97
  17.8543         88
  17.8729         87
  17.8915         72
  17.9100         71
  17.9286         66
  17.9472         92
  17.9658         66
  17.9843         76
  18.0029         81
  18.0215         57
  18.0401         89
  18.0586         79
  18.0772         79
  18.0958         88
  18.1144         87
  18.1329         84
  18.1515         80
  18.1701         68
  18.1887         78
  18.2073         98
  18.2258         97
  18.2444         82
  18.2630         83
  18.2816         91
  18.3001         79
  18.3187         77
  18.3373         67
  18.3559         84
  18.3744         97
  18.3930         78
  18.4116         90
  18.4302         86
  18.4487         74
  18.4673         69
  18.4859         81
  18.5045         86
  18.5230         88
  18.5416         93
  18.5602         95
  18.5788         81
  18.5973         61
  18.6159         91
  18.6345         93
  18.6531         79
  18.6716         76
  18.6902         85
  18.7088         82
  18.7274         93
  18.7459         67
  18.7645         83
  18.7831         91
  18.8017         69
  18.8202         90
  18.8388         92
  18.8574         85
  18.8760         80
  18.8945         59
  18.9131         88
  18.9317        100
  18.9503         85
  18.9689         72
  18.9874         85
  19.0060         98
  19.0246         97
  19.0432         86
  19.0617         92
  19.0803         98
  19.0989         99
  19.1175         82
  19.1360         94
  19.1546         98
  19.1732         71
  19.1918        108
  19.2103         81
  19.2289         94
  19.2475        100
  19.2661         75
  19.2846         83
  19.3032         90
  19.3218         84
  19.3404         79
  19.3589         97
  19.3775         93
  19.3961         80
  19.4147         90
  19.4332         77
  19.4518         89
  19.4704        101
  19.4890         84
  19.5075         87
  19.5261         93
  19.5447         95
  19.5633         85
  19.5818         83
  19.6004         90
  19.6190         99
  19.6376         84
  19.6561         86
  19.6747         82
  19.6933         76
  19.7119         89
  19.7305         74
  19.7490         88
  19.7676         77
  19.7862         89
  19.8048         84
  19.8233         85
  19.8419         69
  19.8605         98
  19.8791         95
  19.8976         99
  19.9162         87
  19.9348        100
  19.9534         94
  19.9719        102
  19.9905         99
  20.0091         94
  20.0277         86
  20.0462         96
  20.0648         92
  20.0834         98
  20.1020         84
  20.1205         83
  20.1391         87
  20.1577         92
  20.1763         82
  20.1948        101
  20.2134         71
  20.2320         96
  20.2506         95
  20.2691         91
  20.2877         76
  20.3063         90
  20.3249         87
  20.3434         87
  20.3620         83
  20.3806         95
  20.3992         79
  20.4177         92
  20.4363         86
  20.4549         98
  20.4735         96
