; (content of file Y:\Sam\Apurva-07-20-2022\puck4\ML_20220718_53_SJD_4_LaB6-2min.raw)
_FILEVERSION = 3
_SAMPLE = ML_20220718_53_SJD_4_LaB6-2min
_+SAMPLE = 
_SITE = USA
_USER = Administrator
_GONIOMETER_CODE = 20
; Goniometer : D8 theta/2theta, stage : Unknown
_ATTACHMENTS_CODE = 0
_GONIOMETER_RADIUS = 200.5
_FIXED_DIVSLIT = 0.6
_FIXED_SAMPLESLIT = 0
_SOLLER_SLITS = 2
_FIXED_DETSLIT = 9.55
_MONOCHROMATOR = 0
; Incident beam monochromator : None
_SOLLER_SLITS_2 = N
_THIN_FILM = N
_BETA_FILTER = Y
_FIXED_ANTISLIT = 5.89
_ANALYZER_CODE = 0
; Received beam analyzer : None
_DATEMEASURED = "26-Jul-2022 12:34:49"
_WL_UNIT = A
_WL1 = 1.5406
_WL2 = 1.54439
_WL3 = 1.39222
_WLRATIO = 0.5
_ANODE = Cu
_V4_INF_CREATOR = XRDWizard
_V4_INF_CREATOR_VERSION = V2.9.0.22
_V4_INF_WIZARD_VERSION = V2.9.0.22
_V4_INF_WIZARD_ADDINS = V2.9.0.22
_V4_INF_WIZARD_DOCTYPE = XRD
_V4_INF_OSUSER = McQueenLab
_V4_INF_USER = Administrator
_V4_INF_SITE = USA
_V4_INF_SAMPLEID = ML_20220718_53_SJD_4_LaB6-2min

; Data for range 1
_DRIVE = COUPLED
_STEPTIME = 5.64
_STEPSIZE = 0.0185756
_STEPMODE = C
_START = 5
_THETA = 2.5
_2THETA = 5
_KHI = 0
_PHI = 0
_X = 0
_Y = 0
_Z = 0
_DETECTOR = 5
; Detector type : Unknown
_DETECTORSLIT = unkn
_AUX1 = 0
_AUX2 = 0
_AUX3 = 0
_TIMESTARTED = 15
_TEMP_RATE = -1
_TEMP_DELAY = -1
_KV = 40
_MA = 40
_RANGE_WL = 1.5406
_3DPLANE = 0
_V4_ADDITIONALDETECTOR = 257
_V4_PSD2THETA = 3.373
_V4_PSDCHANNEL1 = 0
_V4_PSDAPERTURE = 12.68
_V4_PSDTYPE = 5
_V4_PSDFIXED = 0
_V4_COUNTERS_MASK = 4096
_V4_DRIVES_MASK = 0
_V4_ENCODERS_MASK = 0
_2THETACOUNTS = 1
; 2THETA  PSD
   5.0000        116
   5.0186        121
   5.0372        131
   5.0557        113
   5.0743        110
   5.0929        122
   5.1115        118
   5.1300        137
   5.1486        125
   5.1672         99
   5.1858        142
   5.2043        116
   5.2229        130
   5.2415        115
   5.2601        119
   5.2786        111
   5.2972         99
   5.3158        105
   5.3344        116
   5.3529        126
   5.3715        128
   5.3901        122
   5.4087        127
   5.4272        121
   5.4458        134
   5.4644         95
   5.4830        109
   5.5015        111
   5.5201        113
   5.5387         99
   5.5573        103
   5.5758        108
   5.5944        102
   5.6130        119
   5.6316         95
   5.6501        107
   5.6687        100
   5.6873        119
   5.7059        122
   5.7244        101
   5.7430        100
   5.7616        106
   5.7802        100
   5.7988        104
   5.8173        101
   5.8359         91
   5.8545        104
   5.8731        111
   5.8916        101
   5.9102         99
   5.9288         94
   5.9474         84
   5.9659        101
   5.9845        113
   6.0031        121
   6.0217         94
   6.0402         75
   6.0588        112
   6.0774        100
   6.0960         97
   6.1145         94
   6.1331        112
   6.1517         85
   6.1703         95
   6.1888         90
   6.2074         91
   6.2260         78
   6.2446        100
   6.2631        109
   6.2817         85
   6.3003         94
   6.3189         94
   6.3374         83
   6.3560         99
   6.3746        100
   6.3932         94
   6.4117        100
   6.4303         96
   6.4489         98
   6.4675         86
   6.4860         80
   6.5046         83
   6.5232         82
   6.5418         93
   6.5604         83
   6.5789         80
   6.5975         70
   6.6161         86
   6.6347         84
   6.6532         95
   6.6718         62
   6.6904         94
   6.7090         88
   6.7275         89
   6.7461         89
   6.7647         94
   6.7833         74
   6.8018         72
   6.8204         78
   6.8390         67
   6.8576         94
   6.8761         64
   6.8947         95
   6.9133         88
   6.9319         71
   6.9504         77
   6.9690         67
   6.9876         84
   7.0062         77
   7.0247         96
   7.0433         77
   7.0619         99
   7.0805         95
   7.0990         87
   7.1176         81
   7.1362         80
   7.1548         79
   7.1733         64
   7.1919         84
   7.2105         84
   7.2291         76
   7.2476         69
   7.2662         64
   7.2848         88
   7.3034         87
   7.3220         91
   7.3405         83
   7.3591         81
   7.3777         75
   7.3963         86
   7.4148         72
   7.4334         66
   7.4520         93
   7.4706         80
   7.4891         88
   7.5077         72
   7.5263         72
   7.5449         86
   7.5634         95
   7.5820         88
   7.6006         80
   7.6192         96
   7.6377         89
   7.6563         88
   7.6749         80
   7.6935         93
   7.7120         81
   7.7306        104
   7.7492         81
   7.7678         98
   7.7863        105
   7.8049         94
   7.8235         91
   7.8421         97
   7.8606         85
   7.8792         86
   7.8978         90
   7.9164         85
   7.9349         97
   7.9535         80
   7.9721        107
   7.9907         96
   8.0092        114
   8.0278         96
   8.0464         97
   8.0650         87
   8.0835         92
   8.1021        100
   8.1207         96
   8.1393         82
   8.1579         94
   8.1764         96
   8.1950         95
   8.2136         93
   8.2322         92
   8.2507         85
   8.2693         99
   8.2879         87
   8.3065         97
   8.3250        109
   8.3436         87
   8.3622         87
   8.3808        114
   8.3993         83
   8.4179        100
   8.4365         86
   8.4551        110
   8.4736         89
   8.4922         93
   8.5108        103
   8.5294         90
   8.5479        107
   8.5665         98
   8.5851        103
   8.6037         94
   8.6222         90
   8.6408        101
   8.6594         97
   8.6780        109
   8.6965         95
   8.7151         88
   8.7337        118
   8.7523         88
   8.7708         99
   8.7894        112
   8.8080        105
   8.8266         99
   8.8451        109
   8.8637         95
   8.8823        112
   8.9009        103
   8.9195         98
   8.9380        108
   8.9566        113
   8.9752        109
   8.9938        110
   9.0123        122
   9.0309        118
   9.0495        108
   9.0681         96
   9.0866        101
   9.1052        109
   9.1238         99
   9.1424        104
   9.1609        107
   9.1795        122
   9.1981        126
   9.2167        117
   9.2352        110
   9.2538        119
   9.2724        117
   9.2910         97
   9.3095         94
   9.3281        121
   9.3467        118
   9.3653        101
   9.3838        123
   9.4024        111
   9.4210        106
   9.4396        103
   9.4581         99
   9.4767        126
   9.4953         86
   9.5139         91
   9.5324        124
   9.5510        118
   9.5696        126
   9.5882        116
   9.6067        104
   9.6253        113
   9.6439        113
   9.6625         91
   9.6811        131
   9.6996        124
   9.7182        140
   9.7368        108
   9.7554        111
   9.7739        121
   9.7925        109
   9.8111        110
   9.8297        117
   9.8482        112
   9.8668         97
   9.8854        127
   9.9040        112
   9.9225        121
   9.9411        122
   9.9597        106
   9.9783        109
   9.9968        110
  10.0154        120
  10.0340        123
  10.0526        119
  10.0711         97
  10.0897        113
  10.1083        104
  10.1269        119
  10.1454        137
  10.1640        143
  10.1826        125
  10.2012        128
  10.2197        124
  10.2383        113
  10.2569        124
  10.2755        129
  10.2940        126
  10.3126        119
  10.3312        118
  10.3498        112
  10.3683        144
  10.3869        122
  10.4055        129
  10.4241        119
  10.4427        108
  10.4612        132
  10.4798        121
  10.4984        129
  10.5170        128
  10.5355        115
  10.5541        120
  10.5727        107
  10.5913        133
  10.6098        107
  10.6284        121
  10.6470         99
  10.6656        132
  10.6841        107
  10.7027        117
  10.7213        118
  10.7399        148
  10.7584        114
  10.7770        116
  10.7956        114
  10.8142        116
  10.8327        107
  10.8513        100
  10.8699        114
  10.8885        115
  10.9070        118
  10.9256        112
  10.9442        122
  10.9628        126
  10.9813         98
  10.9999        117
  11.0185        138
  11.0371        110
  11.0556        111
  11.0742        138
  11.0928        117
  11.1114        115
  11.1299         88
  11.1485        114
  11.1671        114
  11.1857        102
  11.2043        141
  11.2228        103
  11.2414        121
  11.2600        100
  11.2786        117
  11.2971        133
  11.3157        138
  11.3343        117
  11.3529        137
  11.3714        120
  11.3900        123
  11.4086        124
  11.4272        116
  11.4457        102
  11.4643        115
  11.4829        104
  11.5015        102
  11.5200        103
  11.5386        120
  11.5572        121
  11.5758        117
  11.5943        125
  11.6129        106
  11.6315        102
  11.6501        110
  11.6686        115
  11.6872        117
  11.7058        129
  11.7244        114
  11.7429        110
  11.7615        102
  11.7801        119
  11.7987        111
  11.8172        107
  11.8358         95
  11.8544        146
  11.8730        107
  11.8915        119
  11.9101        109
  11.9287        109
  11.9473        106
  11.9659        118
  11.9844        119
  12.0030        100
  12.0216        111
  12.0402        114
  12.0587        106
  12.0773        106
  12.0959        112
  12.1145        101
  12.1330        112
  12.1516        101
  12.1702         98
  12.1888        108
  12.2073        114
  12.2259        125
  12.2445        115
  12.2631        126
  12.2816        116
  12.3002        104
  12.3188        119
  12.3374        128
  12.3559        107
  12.3745         99
  12.3931        105
  12.4117        102
  12.4302        104
  12.4488        110
  12.4674        111
  12.4860        111
  12.5045        112
  12.5231        104
  12.5417        118
  12.5603        103
  12.5788        112
  12.5974        107
  12.6160        107
  12.6346        102
  12.6531        104
  12.6717         94
  12.6903        112
  12.7089        110
  12.7274         88
  12.7460        126
  12.7646        104
  12.7832        115
  12.8018         92
  12.8203        104
  12.8389        101
  12.8575        107
  12.8761        121
  12.8946         84
  12.9132         92
  12.9318         94
  12.9504         99
  12.9689        104
  12.9875        101
  13.0061        115
  13.0247         89
  13.0432        112
  13.0618         98
  13.0804         93
  13.0990        100
  13.1175         85
  13.1361        114
  13.1547         95
  13.1733        102
  13.1918        110
  13.2104        102
  13.2290         94
  13.2476        102
  13.2661         91
  13.2847        126
  13.3033        101
  13.3219         85
  13.3404        100
  13.3590         95
  13.3776        106
  13.3962         91
  13.4147         92
  13.4333        100
  13.4519        103
  13.4705        106
  13.4890         80
  13.5076         96
  13.5262         97
  13.5448         96
  13.5634        107
  13.5819         97
  13.6005         91
  13.6191         96
  13.6377        100
  13.6562         97
  13.6748         90
  13.6934         88
  13.7120         90
  13.7305         98
  13.7491         85
  13.7677         96
  13.7863         85
  13.8048         94
  13.8234         82
  13.8420         73
  13.8606         92
  13.8791         88
  13.8977         99
  13.9163        100
  13.9349         83
  13.9534         90
  13.9720        115
  13.9906         88
  14.0092         77
  14.0277         85
  14.0463         82
  14.0649         95
  14.0835         93
  14.1020         89
  14.1206         96
  14.1392         99
  14.1578         72
  14.1763         85
  14.1949         73
  14.2135         89
  14.2321         95
  14.2506         91
  14.2692         94
  14.2878         79
  14.3064         85
  14.3250         97
  14.3435        101
  14.3621         65
  14.3807         91
  14.3993         86
  14.4178         80
  14.4364         86
  14.4550         89
  14.4736         83
  14.4921         81
  14.5107        100
  14.5293         84
  14.5479         97
  14.5664         96
  14.5850         75
  14.6036         87
  14.6222         88
  14.6407         97
  14.6593         81
  14.6779         82
  14.6965         84
  14.7150         84
  14.7336         68
  14.7522         73
  14.7708         66
  14.7893         62
  14.8079         72
  14.8265         81
  14.8451        100
  14.8636         85
  14.8822         61
  14.9008         99
  14.9194         91
  14.9379         96
  14.9565         93
  14.9751        103
  14.9937         75
  15.0122         88
  15.0308         78
  15.0494         81
  15.0680         85
  15.0866         86
  15.1051         77
  15.1237         86
  15.1423         78
  15.1609         92
  15.1794         97
  15.1980         92
  15.2166         89
  15.2352         90
  15.2537         96
  15.2723         73
  15.2909         84
  15.3095         96
  15.3280        113
  15.3466         89
  15.3652         89
  15.3838         73
  15.4023         85
  15.4209         91
  15.4395         91
  15.4581         67
  15.4766         93
  15.4952         64
  15.5138         72
  15.5324         69
  15.5509        100
  15.5695         93
  15.5881         94
  15.6067         60
  15.6252         71
  15.6438         69
  15.6624         72
  15.6810         81
  15.6995         81
  15.7181         92
  15.7367         83
  15.7553         83
  15.7738         81
  15.7924         76
  15.8110         82
  15.8296         81
  15.8482         81
  15.8667         88
  15.8853         76
  15.9039         91
  15.9225         76
  15.9410         90
  15.9596         67
  15.9782         70
  15.9968         63
  16.0153         91
  16.0339         77
  16.0525         68
  16.0711         94
  16.0896         96
  16.1082         69
  16.1268         86
  16.1454         77
  16.1639         88
  16.1825         83
  16.2011         68
  16.2197         73
  16.2382         74
  16.2568         73
  16.2754         89
  16.2940         82
  16.3125         82
  16.3311         69
  16.3497         75
  16.3683         66
  16.3868         77
  16.4054         84
  16.4240         66
  16.4426         82
  16.4611         80
  16.4797         77
  16.4983         85
  16.5169         64
  16.5354         94
  16.5540         90
  16.5726         78
  16.5912         77
  16.6097         78
  16.6283         86
  16.6469         83
  16.6655         76
  16.6841         84
  16.7026         90
  16.7212         70
  16.7398         82
  16.7584         78
  16.7769         95
  16.7955         70
  16.8141         62
  16.8327         77
  16.8512         94
  16.8698         78
  16.8884         91
  16.9070         72
  16.9255         84
  16.9441         85
  16.9627         72
  16.9813         90
  16.9998         75
  17.0184         85
  17.0370         79
  17.0556         75
  17.0741         75
  17.0927         74
  17.1113         64
  17.1299         96
  17.1484         98
  17.1670         83
  17.1856         71
  17.2042         73
  17.2227         84
  17.2413         85
  17.2599         98
  17.2785         78
  17.2970         68
  17.3156         77
  17.3342         81
  17.3528         68
  17.3713         68
  17.3899         99
  17.4085         89
  17.4271         87
  17.4457         81
  17.4642         76
  17.4828         65
  17.5014         69
  17.5200         74
  17.5385         69
  17.5571         77
  17.5757         79
  17.5943         75
  17.6128         77
  17.6314         75
  17.6500         69
  17.6686         75
  17.6871         74
  17.7057         91
  17.7243         78
  17.7429         81
  17.7614         66
  17.7800         73
  17.7986         66
  17.8172         92
  17.8357         86
  17.8543         76
  17.8729         79
  17.8915         88
  17.9100         62
  17.9286         86
  17.9472        111
  17.9658         77
  17.9843         85
  18.0029         85
  18.0215         82
  18.0401         71
  18.0586         81
  18.0772         80
  18.0958         92
  18.1144         90
  18.1329         55
  18.1515         71
  18.1701        103
  18.1887         82
  18.2073         88
  18.2258         68
  18.2444         88
  18.2630         85
  18.2816         71
  18.3001         70
  18.3187         95
  18.3373         76
  18.3559         95
  18.3744         77
  18.3930         92
  18.4116        101
  18.4302         72
  18.4487         81
  18.4673         73
  18.4859         65
  18.5045         97
  18.5230         79
  18.5416         86
  18.5602         79
  18.5788         93
  18.5973         72
  18.6159         83
  18.6345         96
  18.6531         74
  18.6716         69
  18.6902         73
  18.7088         85
  18.7274         98
  18.7459         89
  18.7645         93
  18.7831         85
  18.8017         84
  18.8202         83
  18.8388         84
  18.8574         74
  18.8760         70
  18.8945         79
  18.9131         96
  18.9317         83
  18.9503         72
  18.9689         77
  18.9874         76
  19.0060         91
  19.0246         85
  19.0432         73
  19.0617         71
  19.0803         74
  19.0989         89
  19.1175         95
  19.1360         72
  19.1546         91
  19.1732         75
  19.1918         87
  19.2103         82
  19.2289         87
  19.2475         72
  19.2661         81
  19.2846         86
  19.3032         99
  19.3218         82
  19.3404         93
  19.3589         95
  19.3775         81
  19.3961         88
  19.4147         94
  19.4332         93
  19.4518         87
  19.4704         69
  19.4890         76
  19.5075         88
  19.5261         74
  19.5447         72
  19.5633         75
  19.5818         91
  19.6004         82
  19.6190         90
  19.6376         72
  19.6561         88
  19.6747         84
  19.6933         83
  19.7119         83
  19.7305         94
  19.7490         85
  19.7676        102
  19.7862         79
  19.8048         84
  19.8233         89
  19.8419         80
  19.8605         94
  19.8791         91
  19.8976         86
  19.9162         86
  19.9348         96
  19.9534        103
  19.9719         87
  19.9905         97
  20.0091         89
  20.0277         94
  20.0462         90
  20.0648        107
  20.0834         87
  20.1020        103
  20.1205         82
  20.1391         87
  20.1577         86
  20.1763        100
  20.1948         85
  20.2134         85
  20.2320         95
  20.2506         78
  20.2691        107
  20.2877        109
  20.3063         92
  20.3249         97
  20.3434        102
  20.3620         76
  20.3806         88
  20.3992         89
  20.4177        108
  20.4363         93
  20.4549         89
  20.4735         98
