; (content of file Y:\Sam\Apurva-07-20-2022\puck1\ML_20220721_13_SJD_0_LaB6-4min.raw)
_FILEVERSION = 3
_SAMPLE = ML_20220721_13_SJD_0_LaB6-4min
_+SAMPLE = 
_SITE = USA
_USER = Administrator
_GONIOMETER_CODE = 20
; Goniometer : D8 theta/2theta, stage : Unknown
_ATTACHMENTS_CODE = 0
_GONIOMETER_RADIUS = 200.5
_FIXED_DIVSLIT = 0.6
_FIXED_SAMPLESLIT = 0
_SOLLER_SLITS = 2
_FIXED_DETSLIT = 9.55
_MONOCHROMATOR = 0
; Incident beam monochromator : None
_SOLLER_SLITS_2 = N
_THIN_FILM = N
_BETA_FILTER = Y
_FIXED_ANTISLIT = 5.89
_ANALYZER_CODE = 0
; Received beam analyzer : None
_DATEMEASURED = "25-Jul-2022 14:50:52"
_WL_UNIT = A
_WL1 = 1.5406
_WL2 = 1.54439
_WL3 = 1.39222
_WLRATIO = 0.5
_ANODE = Cu
_V4_INF_CREATOR = XRDWizard
_V4_INF_CREATOR_VERSION = V2.9.0.22
_V4_INF_WIZARD_VERSION = V2.9.0.22
_V4_INF_WIZARD_ADDINS = V2.9.0.22
_V4_INF_WIZARD_DOCTYPE = XRD
_V4_INF_OSUSER = McQueenLab
_V4_INF_USER = Administrator
_V4_INF_SITE = USA
_V4_INF_SAMPLEID = ML_20220721_13_SJD_0_LaB6-4min

; Data for range 1
_DRIVE = COUPLED
_STEPTIME = 11.28
_STEPSIZE = 0.0185756
_STEPMODE = C
_START = 5
_THETA = 2.5
_2THETA = 5
_KHI = 0
_PHI = 0
_X = 0
_Y = 0
_Z = 0
_DETECTOR = 5
; Detector type : Unknown
_DETECTORSLIT = unkn
_AUX1 = 0
_AUX2 = 0
_AUX3 = 0
_TIMESTARTED = 15
_TEMP_RATE = -1
_TEMP_DELAY = -1
_KV = 40
_MA = 40
_RANGE_WL = 1.5406
_3DPLANE = 0
_V4_ADDITIONALDETECTOR = 257
_V4_PSD2THETA = 3.3889
_V4_PSDCHANNEL1 = 0
_V4_PSDAPERTURE = 12.68
_V4_PSDTYPE = 5
_V4_PSDFIXED = 0
_V4_COUNTERS_MASK = 4096
_V4_DRIVES_MASK = 0
_V4_ENCODERS_MASK = 0
_2THETACOUNTS = 1
; 2THETA  PSD
   5.0000        288
   5.0186        306
   5.0372        297
   5.0557        265
   5.0743        271
   5.0929        263
   5.1115        245
   5.1300        245
   5.1486        256
   5.1672        283
   5.1858        258
   5.2043        252
   5.2229        224
   5.2415        257
   5.2601        257
   5.2786        244
   5.2972        242
   5.3158        238
   5.3344        271
   5.3529        206
   5.3715        257
   5.3901        253
   5.4087        253
   5.4272        236
   5.4458        264
   5.4644        236
   5.4830        265
   5.5015        217
   5.5201        230
   5.5387        205
   5.5573        223
   5.5758        238
   5.5944        208
   5.6130        222
   5.6316        236
   5.6501        236
   5.6687        227
   5.6873        237
   5.7059        209
   5.7244        220
   5.7430        212
   5.7616        207
   5.7802        206
   5.7988        199
   5.8173        199
   5.8359        207
   5.8545        214
   5.8731        204
   5.8916        197
   5.9102        204
   5.9288        215
   5.9474        196
   5.9659        189
   5.9845        195
   6.0031        191
   6.0217        215
   6.0402        198
   6.0588        184
   6.0774        195
   6.0960        207
   6.1145        184
   6.1331        175
   6.1517        188
   6.1703        206
   6.1888        177
   6.2074        203
   6.2260        178
   6.2446        187
   6.2631        189
   6.2817        210
   6.3003        182
   6.3189        180
   6.3374        184
   6.3560        183
   6.3746        191
   6.3932        208
   6.4117        202
   6.4303        178
   6.4489        159
   6.4675        146
   6.4860        177
   6.5046        188
   6.5232        185
   6.5418        175
   6.5604        195
   6.5789        188
   6.5975        172
   6.6161        197
   6.6347        174
   6.6532        169
   6.6718        204
   6.6904        180
   6.7090        158
   6.7275        206
   6.7461        151
   6.7647        156
   6.7833        187
   6.8018        170
   6.8204        160
   6.8390        169
   6.8576        158
   6.8761        153
   6.8947        186
   6.9133        160
   6.9319        180
   6.9504        158
   6.9690        182
   6.9876        153
   7.0062        150
   7.0247        158
   7.0433        152
   7.0619        168
   7.0805        170
   7.0990        175
   7.1176        168
   7.1362        165
   7.1548        142
   7.1733        162
   7.1919        168
   7.2105        159
   7.2291        149
   7.2476        184
   7.2662        161
   7.2848        162
   7.3034        167
   7.3220        154
   7.3405        160
   7.3591        196
   7.3777        165
   7.3963        164
   7.4148        148
   7.4334        169
   7.4520        167
   7.4706        198
   7.4891        180
   7.5077        172
   7.5263        163
   7.5449        171
   7.5634        174
   7.5820        185
   7.6006        178
   7.6192        174
   7.6377        174
   7.6563        178
   7.6749        161
   7.6935        196
   7.7120        181
   7.7306        163
   7.7492        213
   7.7678        191
   7.7863        183
   7.8049        178
   7.8235        195
   7.8421        174
   7.8606        177
   7.8792        205
   7.8978        161
   7.9164        174
   7.9349        178
   7.9535        158
   7.9721        184
   7.9907        187
   8.0092        221
   8.0278        188
   8.0464        193
   8.0650        186
   8.0835        210
   8.1021        176
   8.1207        174
   8.1393        184
   8.1579        177
   8.1764        182
   8.1950        195
   8.2136        193
   8.2322        190
   8.2507        177
   8.2693        208
   8.2879        177
   8.3065        211
   8.3250        207
   8.3436        200
   8.3622        178
   8.3808        204
   8.3993        179
   8.4179        202
   8.4365        177
   8.4551        194
   8.4736        213
   8.4922        184
   8.5108        195
   8.5294        193
   8.5479        185
   8.5665        188
   8.5851        217
   8.6037        186
   8.6222        201
   8.6408        222
   8.6594        216
   8.6780        201
   8.6965        177
   8.7151        214
   8.7337        204
   8.7523        201
   8.7708        190
   8.7894        216
   8.8080        216
   8.8266        180
   8.8451        211
   8.8637        201
   8.8823        214
   8.9009        208
   8.9195        226
   8.9380        210
   8.9566        220
   8.9752        199
   8.9938        217
   9.0123        231
   9.0309        211
   9.0495        211
   9.0681        215
   9.0866        210
   9.1052        247
   9.1238        231
   9.1424        230
   9.1609        202
   9.1795        239
   9.1981        256
   9.2167        203
   9.2352        221
   9.2538        231
   9.2724        243
   9.2910        194
   9.3095        231
   9.3281        219
   9.3467        237
   9.3653        210
   9.3838        230
   9.4024        215
   9.4210        230
   9.4396        263
   9.4581        236
   9.4767        243
   9.4953        201
   9.5139        219
   9.5324        221
   9.5510        229
   9.5696        232
   9.5882        205
   9.6067        234
   9.6253        253
   9.6439        230
   9.6625        233
   9.6811        222
   9.6996        222
   9.7182        217
   9.7368        211
   9.7554        227
   9.7739        236
   9.7925        246
   9.8111        227
   9.8297        251
   9.8482        237
   9.8668        275
   9.8854        218
   9.9040        210
   9.9225        243
   9.9411        235
   9.9597        249
   9.9783        258
   9.9968        222
  10.0154        271
  10.0340        236
  10.0526        237
  10.0711        253
  10.0897        223
  10.1083        237
  10.1269        214
  10.1454        237
  10.1640        254
  10.1826        262
  10.2012        249
  10.2197        242
  10.2383        211
  10.2569        231
  10.2755        231
  10.2940        249
  10.3126        253
  10.3312        259
  10.3498        280
  10.3683        230
  10.3869        255
  10.4055        247
  10.4241        262
  10.4427        254
  10.4612        269
  10.4798        228
  10.4984        235
  10.5170        232
  10.5355        277
  10.5541        221
  10.5727        266
  10.5913        262
  10.6098        245
  10.6284        244
  10.6470        230
  10.6656        255
  10.6841        236
  10.7027        241
  10.7213        212
  10.7399        230
  10.7584        247
  10.7770        276
  10.7956        215
  10.8142        243
  10.8327        252
  10.8513        236
  10.8699        266
  10.8885        241
  10.9070        246
  10.9256        236
  10.9442        222
  10.9628        235
  10.9813        257
  10.9999        251
  11.0185        228
  11.0371        234
  11.0556        228
  11.0742        228
  11.0928        245
  11.1114        234
  11.1299        235
  11.1485        252
  11.1671        238
  11.1857        244
  11.2043        248
  11.2228        222
  11.2414        234
  11.2600        233
  11.2786        228
  11.2971        239
  11.3157        233
  11.3343        258
  11.3529        243
  11.3714        225
  11.3900        247
  11.4086        256
  11.4272        245
  11.4457        254
  11.4643        247
  11.4829        231
  11.5015        257
  11.5200        278
  11.5386        251
  11.5572        229
  11.5758        238
  11.5943        235
  11.6129        267
  11.6315        251
  11.6501        223
  11.6686        227
  11.6872        253
  11.7058        234
  11.7244        233
  11.7429        226
  11.7615        226
  11.7801        261
  11.7987        264
  11.8172        234
  11.8358        234
  11.8544        266
  11.8730        255
  11.8915        235
  11.9101        241
  11.9287        222
  11.9473        239
  11.9659        267
  11.9844        227
  12.0030        224
  12.0216        213
  12.0402        237
  12.0587        238
  12.0773        225
  12.0959        243
  12.1145        206
  12.1330        228
  12.1516        232
  12.1702        217
  12.1888        250
  12.2073        233
  12.2259        207
  12.2445        261
  12.2631        235
  12.2816        225
  12.3002        205
  12.3188        219
  12.3374        236
  12.3559        225
  12.3745        204
  12.3931        244
  12.4117        214
  12.4302        211
  12.4488        188
  12.4674        202
  12.4860        218
  12.5045        212
  12.5231        206
  12.5417        246
  12.5603        208
  12.5788        224
  12.5974        201
  12.6160        217
  12.6346        202
  12.6531        198
  12.6717        225
  12.6903        206
  12.7089        211
  12.7274        197
  12.7460        218
  12.7646        221
  12.7832        207
  12.8018        201
  12.8203        212
  12.8389        220
  12.8575        231
  12.8761        230
  12.8946        211
  12.9132        238
  12.9318        196
  12.9504        208
  12.9689        218
  12.9875        214
  13.0061        196
  13.0247        208
  13.0432        216
  13.0618        212
  13.0804        180
  13.0990        202
  13.1175        202
  13.1361        225
  13.1547        201
  13.1733        209
  13.1918        224
  13.2104        216
  13.2290        190
  13.2476        203
  13.2661        214
  13.2847        196
  13.3033        221
  13.3219        200
  13.3404        194
  13.3590        201
  13.3776        203
  13.3962        210
  13.4147        191
  13.4333        211
  13.4519        173
  13.4705        198
  13.4890        214
  13.5076        197
  13.5262        203
  13.5448        192
  13.5634        211
  13.5819        203
  13.6005        217
  13.6191        222
  13.6377        180
  13.6562        212
  13.6748        197
  13.6934        177
  13.7120        196
  13.7305        172
  13.7491        212
  13.7677        172
  13.7863        205
  13.8048        176
  13.8234        174
  13.8420        188
  13.8606        176
  13.8791        201
  13.8977        192
  13.9163        188
  13.9349        178
  13.9534        172
  13.9720        169
  13.9906        186
  14.0092        184
  14.0277        183
  14.0463        175
  14.0649        172
  14.0835        200
  14.1020        178
  14.1206        168
  14.1392        186
  14.1578        175
  14.1763        153
  14.1949        184
  14.2135        189
  14.2321        192
  14.2506        178
  14.2692        171
  14.2878        180
  14.3064        203
  14.3250        195
  14.3435        170
  14.3621        158
  14.3807        168
  14.3993        176
  14.4178        184
  14.4364        153
  14.4550        161
  14.4736        183
  14.4921        158
  14.5107        190
  14.5293        167
  14.5479        183
  14.5664        173
  14.5850        182
  14.6036        175
  14.6222        176
  14.6407        189
  14.6593        180
  14.6779        197
  14.6965        196
  14.7150        174
  14.7336        158
  14.7522        182
  14.7708        177
  14.7893        188
  14.8079        144
  14.8265        150
  14.8451        185
  14.8636        183
  14.8822        182
  14.9008        181
  14.9194        191
  14.9379        181
  14.9565        161
  14.9751        182
  14.9937        179
  15.0122        155
  15.0308        180
  15.0494        154
  15.0680        181
  15.0866        173
  15.1051        169
  15.1237        180
  15.1423        161
  15.1609        171
  15.1794        183
  15.1980        164
  15.2166        149
  15.2352        150
  15.2537        178
  15.2723        170
  15.2909        150
  15.3095        159
  15.3280        198
  15.3466        180
  15.3652        175
  15.3838        177
  15.4023        162
  15.4209        160
  15.4395        156
  15.4581        184
  15.4766        155
  15.4952        179
  15.5138        162
  15.5324        163
  15.5509        161
  15.5695        159
  15.5881        150
  15.6067        167
  15.6252        155
  15.6438        162
  15.6624        179
  15.6810        176
  15.6995        172
  15.7181        157
  15.7367        160
  15.7553        157
  15.7738        171
  15.7924        164
  15.8110        145
  15.8296        177
  15.8482        159
  15.8667        161
  15.8853        176
  15.9039        155
  15.9225        134
  15.9410        182
  15.9596        187
  15.9782        176
  15.9968        143
  16.0153        173
  16.0339        176
  16.0525        156
  16.0711        148
  16.0896        189
  16.1082        142
  16.1268        153
  16.1454        166
  16.1639        162
  16.1825        167
  16.2011        158
  16.2197        152
  16.2382        163
  16.2568        148
  16.2754        171
  16.2940        184
  16.3125        164
  16.3311        190
  16.3497        190
  16.3683        174
  16.3868        163
  16.4054        169
  16.4240        168
  16.4426        174
  16.4611        152
  16.4797        173
  16.4983        167
  16.5169        154
  16.5354        162
  16.5540        154
  16.5726        167
  16.5912        173
  16.6097        143
  16.6283        167
  16.6469        168
  16.6655        168
  16.6841        174
  16.7026        171
  16.7212        169
  16.7398        170
  16.7584        156
  16.7769        154
  16.7955        180
  16.8141        145
  16.8327        158
  16.8512        179
  16.8698        152
  16.8884        161
  16.9070        169
  16.9255        173
  16.9441        169
  16.9627        137
  16.9813        160
  16.9998        165
  17.0184        171
  17.0370        170
  17.0556        146
  17.0741        149
  17.0927        160
  17.1113        180
  17.1299        151
  17.1484        146
  17.1670        163
  17.1856        166
  17.2042        173
  17.2227        170
  17.2413        172
  17.2599        142
  17.2785        173
  17.2970        163
  17.3156        147
  17.3342        177
  17.3528        144
  17.3713        158
  17.3899        139
  17.4085        148
  17.4271        174
  17.4457        151
  17.4642        141
  17.4828        174
  17.5014        156
  17.5200        164
  17.5385        154
  17.5571        158
  17.5757        163
  17.5943        191
  17.6128        146
  17.6314        148
  17.6500        158
  17.6686        164
  17.6871        152
  17.7057        157
  17.7243        171
  17.7429        182
  17.7614        166
  17.7800        149
  17.7986        145
  17.8172        166
  17.8357        189
  17.8543        181
  17.8729        162
  17.8915        166
  17.9100        161
  17.9286        172
  17.9472        173
  17.9658        165
  17.9843        152
  18.0029        176
  18.0215        176
  18.0401        147
  18.0586        178
  18.0772        162
  18.0958        193
  18.1144        164
  18.1329        153
  18.1515        154
  18.1701        179
  18.1887        140
  18.2073        165
  18.2258        170
  18.2444        162
  18.2630        172
  18.2816        156
  18.3001        146
  18.3187        177
  18.3373        161
  18.3559        172
  18.3744        186
  18.3930        166
  18.4116        160
  18.4302        156
  18.4487        172
  18.4673        151
  18.4859        162
  18.5045        152
  18.5230        164
  18.5416        164
  18.5602        184
  18.5788        168
  18.5973        165
  18.6159        179
  18.6345        157
  18.6531        140
  18.6716        178
  18.6902        183
  18.7088        187
  18.7274        160
  18.7459        175
  18.7645        169
  18.7831        180
  18.8017        154
  18.8202        154
  18.8388        169
  18.8574        159
  18.8760        150
  18.8945        157
  18.9131        151
  18.9317        150
  18.9503        162
  18.9689        172
  18.9874        168
  19.0060        175
  19.0246        154
  19.0432        149
  19.0617        160
  19.0803        169
  19.0989        183
  19.1175        173
  19.1360        171
  19.1546        185
  19.1732        172
  19.1918        174
  19.2103        172
  19.2289        172
  19.2475        171
  19.2661        168
  19.2846        162
  19.3032        176
  19.3218        180
  19.3404        172
  19.3589        160
  19.3775        158
  19.3961        168
  19.4147        162
  19.4332        150
  19.4518        184
  19.4704        186
  19.4890        193
  19.5075        186
  19.5261        162
  19.5447        180
  19.5633        156
  19.5818        160
  19.6004        155
  19.6190        189
  19.6376        174
  19.6561        170
  19.6747        188
  19.6933        186
  19.7119        198
  19.7305        187
  19.7490        171
  19.7676        161
  19.7862        173
  19.8048        197
  19.8233        175
  19.8419        152
  19.8605        160
  19.8791        192
  19.8976        192
  19.9162        178
  19.9348        168
  19.9534        161
  19.9719        184
  19.9905        185
  20.0091        170
  20.0277        180
  20.0462        190
  20.0648        169
  20.0834        185
  20.1020        183
  20.1205        184
  20.1391        187
  20.1577        200
  20.1763        176
  20.1948        189
  20.2134        187
  20.2320        182
  20.2506        193
  20.2691        186
  20.2877        212
  20.3063        199
  20.3249        160
  20.3434        180
  20.3620        175
  20.3806        210
  20.3992        187
  20.4177        178
  20.4363        180
  20.4549        185
  20.4735        170
