; (content of file Y:\Sam\Apurva-07-20-2022\puck4\ML_20220718_17_SJD_0_LaB6-2min.raw)
_FILEVERSION = 3
_SAMPLE = ML_20220718_17_SJD_0_LaB6-2min
_+SAMPLE = 
_SITE = USA
_USER = Administrator
_GONIOMETER_CODE = 20
; Goniometer : D8 theta/2theta, stage : Unknown
_ATTACHMENTS_CODE = 0
_GONIOMETER_RADIUS = 200.5
_FIXED_DIVSLIT = 0.6
_FIXED_SAMPLESLIT = 0
_SOLLER_SLITS = 2
_FIXED_DETSLIT = 9.55
_MONOCHROMATOR = 0
; Incident beam monochromator : None
_SOLLER_SLITS_2 = N
_THIN_FILM = N
_BETA_FILTER = Y
_FIXED_ANTISLIT = 5.89
_ANALYZER_CODE = 0
; Received beam analyzer : None
_DATEMEASURED = "26-Jul-2022 09:44:42"
_WL_UNIT = A
_WL1 = 1.5406
_WL2 = 1.54439
_WL3 = 1.39222
_WLRATIO = 0.5
_ANODE = Cu
_V4_INF_CREATOR = XRDWizard
_V4_INF_CREATOR_VERSION = V2.9.0.22
_V4_INF_WIZARD_VERSION = V2.9.0.22
_V4_INF_WIZARD_ADDINS = V2.9.0.22
_V4_INF_WIZARD_DOCTYPE = XRD
_V4_INF_OSUSER = McQueenLab
_V4_INF_USER = Administrator
_V4_INF_SITE = USA
_V4_INF_SAMPLEID = ML_20220718_17_SJD_0_LaB6-2min

; Data for range 1
_DRIVE = COUPLED
_STEPTIME = 5.64
_STEPSIZE = 0.0185756
_STEPMODE = C
_START = 5
_THETA = 2.5
_2THETA = 5
_KHI = 0
_PHI = 0
_X = 0
_Y = 0
_Z = 0
_DETECTOR = 5
; Detector type : Unknown
_DETECTORSLIT = unkn
_AUX1 = 0
_AUX2 = 0
_AUX3 = 0
_TIMESTARTED = 15
_TEMP_RATE = -1
_TEMP_DELAY = -1
_KV = 40
_MA = 40
_RANGE_WL = 1.5406
_3DPLANE = 0
_V4_ADDITIONALDETECTOR = 257
_V4_PSD2THETA = 3.3708
_V4_PSDCHANNEL1 = 0
_V4_PSDAPERTURE = 12.68
_V4_PSDTYPE = 5
_V4_PSDFIXED = 0
_V4_COUNTERS_MASK = 4096
_V4_DRIVES_MASK = 0
_V4_ENCODERS_MASK = 0
_2THETACOUNTS = 1
; 2THETA  PSD
   5.0000        128
   5.0186        152
   5.0372        132
   5.0557        127
   5.0743        117
   5.0929        150
   5.1115        158
   5.1300        124
   5.1486        126
   5.1672        110
   5.1858        118
   5.2043        131
   5.2229        121
   5.2415        125
   5.2601        120
   5.2786        122
   5.2972         97
   5.3158        117
   5.3344        111
   5.3529        125
   5.3715        106
   5.3901        112
   5.4087        118
   5.4272        128
   5.4458        105
   5.4644        118
   5.4830         95
   5.5015        121
   5.5201        123
   5.5387        116
   5.5573         94
   5.5758        106
   5.5944        108
   5.6130        114
   5.6316        126
   5.6501        110
   5.6687        105
   5.6873        114
   5.7059        104
   5.7244        102
   5.7430        110
   5.7616         89
   5.7802        105
   5.7988         89
   5.8173        115
   5.8359         93
   5.8545        103
   5.8731         92
   5.8916        107
   5.9102         99
   5.9288         93
   5.9474         98
   5.9659        101
   5.9845        100
   6.0031        122
   6.0217         92
   6.0402        105
   6.0588         92
   6.0774        106
   6.0960         98
   6.1145        101
   6.1331         90
   6.1517        103
   6.1703        108
   6.1888        102
   6.2074         94
   6.2260         95
   6.2446        103
   6.2631         91
   6.2817         96
   6.3003        111
   6.3189         82
   6.3374         92
   6.3560        102
   6.3746         93
   6.3932         91
   6.4117         85
   6.4303         86
   6.4489        104
   6.4675        100
   6.4860         88
   6.5046         93
   6.5232         93
   6.5418         98
   6.5604         94
   6.5789         72
   6.5975         92
   6.6161         79
   6.6347         77
   6.6532         95
   6.6718         81
   6.6904         86
   6.7090         81
   6.7275         82
   6.7461         78
   6.7647         93
   6.7833         81
   6.8018         91
   6.8204         75
   6.8390         88
   6.8576         77
   6.8761         88
   6.8947        104
   6.9133         89
   6.9319         73
   6.9504         86
   6.9690         77
   6.9876         87
   7.0062         81
   7.0247        100
   7.0433         89
   7.0619         81
   7.0805         82
   7.0990         78
   7.1176         71
   7.1362         78
   7.1548         86
   7.1733         79
   7.1919         79
   7.2105         88
   7.2291         86
   7.2476         69
   7.2662         74
   7.2848         73
   7.3034         78
   7.3220         75
   7.3405         76
   7.3591         83
   7.3777         80
   7.3963         92
   7.4148         79
   7.4334         91
   7.4520         81
   7.4706         75
   7.4891         97
   7.5077         95
   7.5263         65
   7.5449         90
   7.5634         75
   7.5820         65
   7.6006         69
   7.6192         76
   7.6377         89
   7.6563         85
   7.6749         79
   7.6935         88
   7.7120         71
   7.7306        112
   7.7492        105
   7.7678         87
   7.7863         79
   7.8049         91
   7.8235         81
   7.8421         76
   7.8606         90
   7.8792         86
   7.8978         84
   7.9164         99
   7.9349         91
   7.9535        114
   7.9721         89
   7.9907        101
   8.0092        102
   8.0278         91
   8.0464         81
   8.0650         96
   8.0835         88
   8.1021         74
   8.1207         89
   8.1393         90
   8.1579        100
   8.1764         98
   8.1950        100
   8.2136         82
   8.2322        102
   8.2507         81
   8.2693        112
   8.2879         81
   8.3065        108
   8.3250        108
   8.3436        108
   8.3622         92
   8.3808        103
   8.3993        107
   8.4179        102
   8.4365        114
   8.4551        111
   8.4736         85
   8.4922         81
   8.5108         97
   8.5294        107
   8.5479         87
   8.5665        102
   8.5851         98
   8.6037         88
   8.6222        101
   8.6408        106
   8.6594        110
   8.6780         98
   8.6965        106
   8.7151        106
   8.7337        122
   8.7523        119
   8.7708        104
   8.7894        108
   8.8080        110
   8.8266        106
   8.8451         87
   8.8637         90
   8.8823        106
   8.9009        126
   8.9195        104
   8.9380         94
   8.9566        106
   8.9752         96
   8.9938        111
   9.0123        110
   9.0309        113
   9.0495        119
   9.0681        109
   9.0866         84
   9.1052        105
   9.1238        114
   9.1424         88
   9.1609        120
   9.1795        118
   9.1981         82
   9.2167         99
   9.2352        131
   9.2538        107
   9.2724        112
   9.2910        107
   9.3095        108
   9.3281        118
   9.3467        112
   9.3653         96
   9.3838        116
   9.4024        121
   9.4210        108
   9.4396        111
   9.4581        102
   9.4767        105
   9.4953        123
   9.5139        103
   9.5324        108
   9.5510        117
   9.5696        116
   9.5882        112
   9.6067        113
   9.6253        107
   9.6439         94
   9.6625        138
   9.6811        105
   9.6996        111
   9.7182        108
   9.7368        111
   9.7554        119
   9.7739        119
   9.7925        116
   9.8111        110
   9.8297        119
   9.8482        118
   9.8668        126
   9.8854        141
   9.9040        121
   9.9225        125
   9.9411        134
   9.9597        129
   9.9783        140
   9.9968        115
  10.0154        108
  10.0340        124
  10.0526         99
  10.0711         99
  10.0897        109
  10.1083        120
  10.1269        127
  10.1454        141
  10.1640        119
  10.1826        106
  10.2012        105
  10.2197        111
  10.2383        126
  10.2569        111
  10.2755        107
  10.2940        123
  10.3126        120
  10.3312        112
  10.3498        131
  10.3683        111
  10.3869        112
  10.4055        119
  10.4241        102
  10.4427        115
  10.4612        127
  10.4798        124
  10.4984        123
  10.5170        115
  10.5355        100
  10.5541        138
  10.5727        130
  10.5913        125
  10.6098        123
  10.6284        117
  10.6470        110
  10.6656        122
  10.6841        135
  10.7027        130
  10.7213        135
  10.7399        127
  10.7584        122
  10.7770        113
  10.7956        132
  10.8142        138
  10.8327        116
  10.8513        122
  10.8699        109
  10.8885        107
  10.9070        109
  10.9256        122
  10.9442        101
  10.9628        116
  10.9813        106
  10.9999        132
  11.0185        132
  11.0371        130
  11.0556        113
  11.0742        135
  11.0928        128
  11.1114        109
  11.1299        117
  11.1485        128
  11.1671        118
  11.1857        119
  11.2043        127
  11.2228        109
  11.2414        129
  11.2600        111
  11.2786        115
  11.2971        107
  11.3157        101
  11.3343        112
  11.3529        113
  11.3714        114
  11.3900        140
  11.4086        110
  11.4272        117
  11.4457        131
  11.4643        105
  11.4829        118
  11.5015        112
  11.5200        132
  11.5386        131
  11.5572        114
  11.5758        109
  11.5943        108
  11.6129        108
  11.6315        101
  11.6501        118
  11.6686         87
  11.6872        112
  11.7058         90
  11.7244        116
  11.7429        127
  11.7615        132
  11.7801        116
  11.7987        104
  11.8172        110
  11.8358        107
  11.8544        129
  11.8730        122
  11.8915        119
  11.9101        111
  11.9287        109
  11.9473         97
  11.9659        114
  11.9844        113
  12.0030        110
  12.0216        108
  12.0402        104
  12.0587        103
  12.0773        108
  12.0959        119
  12.1145        103
  12.1330        102
  12.1516        117
  12.1702        116
  12.1888        117
  12.2073        102
  12.2259         94
  12.2445        144
  12.2631        121
  12.2816        115
  12.3002        122
  12.3188        115
  12.3374        122
  12.3559        106
  12.3745        115
  12.3931         93
  12.4117        104
  12.4302        104
  12.4488        135
  12.4674        101
  12.4860        120
  12.5045        111
  12.5231        123
  12.5417         95
  12.5603         95
  12.5788         99
  12.5974         91
  12.6160        104
  12.6346        103
  12.6531        124
  12.6717         99
  12.6903         94
  12.7089         94
  12.7274        106
  12.7460        102
  12.7646        116
  12.7832         97
  12.8018        102
  12.8203         99
  12.8389        109
  12.8575         91
  12.8761         92
  12.8946        112
  12.9132         98
  12.9318        103
  12.9504         93
  12.9689        101
  12.9875        118
  13.0061         82
  13.0247         93
  13.0432         94
  13.0618         95
  13.0804        106
  13.0990         96
  13.1175        112
  13.1361         96
  13.1547         88
  13.1733        108
  13.1918         72
  13.2104        104
  13.2290         87
  13.2476         91
  13.2661        105
  13.2847         96
  13.3033        101
  13.3219         84
  13.3404        116
  13.3590        105
  13.3776        111
  13.3962        101
  13.4147         89
  13.4333        111
  13.4519         97
  13.4705         83
  13.4890         93
  13.5076         98
  13.5262         92
  13.5448         99
  13.5634         86
  13.5819         81
  13.6005        109
  13.6191         94
  13.6377        109
  13.6562         99
  13.6748        104
  13.6934        104
  13.7120         85
  13.7305        105
  13.7491        104
  13.7677         99
  13.7863         84
  13.8048         97
  13.8234         93
  13.8420         93
  13.8606         86
  13.8791        111
  13.8977        100
  13.9163         87
  13.9349         92
  13.9534         92
  13.9720        100
  13.9906         93
  14.0092         72
  14.0277         97
  14.0463         83
  14.0649         87
  14.0835         99
  14.1020         92
  14.1206         87
  14.1392         92
  14.1578         81
  14.1763         97
  14.1949         90
  14.2135         85
  14.2321         98
  14.2506         93
  14.2692         89
  14.2878         80
  14.3064         80
  14.3250         71
  14.3435         87
  14.3621         81
  14.3807         89
  14.3993         93
  14.4178         90
  14.4364         92
  14.4550        105
  14.4736         69
  14.4921         83
  14.5107         86
  14.5293         94
  14.5479         92
  14.5664         81
  14.5850         85
  14.6036         81
  14.6222        103
  14.6407         84
  14.6593         76
  14.6779         84
  14.6965         77
  14.7150         70
  14.7336         96
  14.7522         76
  14.7708         78
  14.7893         86
  14.8079         89
  14.8265         78
  14.8451         94
  14.8636         89
  14.8822         81
  14.9008         81
  14.9194         82
  14.9379         73
  14.9565         77
  14.9751         84
  14.9937         90
  15.0122         92
  15.0308         78
  15.0494         76
  15.0680         89
  15.0866         67
  15.1051         76
  15.1237         93
  15.1423         86
  15.1609         81
  15.1794         78
  15.1980         74
  15.2166         87
  15.2352         79
  15.2537         82
  15.2723         79
  15.2909         74
  15.3095         76
  15.3280         81
  15.3466         87
  15.3652        113
  15.3838         82
  15.4023         81
  15.4209         98
  15.4395         79
  15.4581         71
  15.4766         65
  15.4952         81
  15.5138         86
  15.5324         80
  15.5509        100
  15.5695         86
  15.5881         81
  15.6067         83
  15.6252         83
  15.6438         60
  15.6624         90
  15.6810         90
  15.6995         83
  15.7181         76
  15.7367         75
  15.7553         84
  15.7738         70
  15.7924         90
  15.8110         71
  15.8296         86
  15.8482         92
  15.8667         98
  15.8853         77
  15.9039         76
  15.9225        109
  15.9410         68
  15.9596         81
  15.9782         97
  15.9968         85
  16.0153         78
  16.0339         80
  16.0525         90
  16.0711         79
  16.0896         70
  16.1082         88
  16.1268         92
  16.1454         76
  16.1639         90
  16.1825         76
  16.2011         86
  16.2197        110
  16.2382         65
  16.2568         93
  16.2754         85
  16.2940         80
  16.3125         79
  16.3311         89
  16.3497         75
  16.3683         74
  16.3868         85
  16.4054         76
  16.4240         93
  16.4426         83
  16.4611         93
  16.4797         86
  16.4983         93
  16.5169         92
  16.5354         80
  16.5540         80
  16.5726         77
  16.5912         84
  16.6097         82
  16.6283         90
  16.6469         90
  16.6655         95
  16.6841         88
  16.7026         77
  16.7212         75
  16.7398         84
  16.7584         72
  16.7769         70
  16.7955         80
  16.8141         95
  16.8327         86
  16.8512         80
  16.8698         78
  16.8884         78
  16.9070         77
  16.9255         74
  16.9441         69
  16.9627         71
  16.9813         78
  16.9998         80
  17.0184         85
  17.0370         78
  17.0556         79
  17.0741         76
  17.0927         80
  17.1113         93
  17.1299         85
  17.1484         79
  17.1670         80
  17.1856         81
  17.2042         84
  17.2227         86
  17.2413         80
  17.2599         74
  17.2785         90
  17.2970         80
  17.3156         95
  17.3342         78
  17.3528         80
  17.3713         79
  17.3899         92
  17.4085         89
  17.4271         83
  17.4457         67
  17.4642         82
  17.4828         83
  17.5014         81
  17.5200         84
  17.5385         89
  17.5571         71
  17.5757         87
  17.5943         93
  17.6128         83
  17.6314         80
  17.6500         77
  17.6686         82
  17.6871         80
  17.7057         93
  17.7243         76
  17.7429         82
  17.7614         82
  17.7800         84
  17.7986         76
  17.8172         85
  17.8357         77
  17.8543         78
  17.8729         77
  17.8915         81
  17.9100         93
  17.9286         78
  17.9472         82
  17.9658         82
  17.9843         70
  18.0029         63
  18.0215         86
  18.0401         95
  18.0586         74
  18.0772         81
  18.0958         84
  18.1144        100
  18.1329         83
  18.1515         81
  18.1701         77
  18.1887         90
  18.2073         68
  18.2258         86
  18.2444         81
  18.2630         87
  18.2816         76
  18.3001         85
  18.3187         73
  18.3373         73
  18.3559         75
  18.3744         88
  18.3930        104
  18.4116         73
  18.4302        120
  18.4487         77
  18.4673         84
  18.4859         78
  18.5045         89
  18.5230         85
  18.5416         57
  18.5602         82
  18.5788         79
  18.5973         73
  18.6159         75
  18.6345         74
  18.6531         75
  18.6716         88
  18.6902         85
  18.7088         70
  18.7274         70
  18.7459         89
  18.7645         92
  18.7831         76
  18.8017         85
  18.8202         91
  18.8388         88
  18.8574         83
  18.8760         97
  18.8945         88
  18.9131         75
  18.9317         97
  18.9503         82
  18.9689         76
  18.9874         90
  19.0060         96
  19.0246         88
  19.0432         74
  19.0617         95
  19.0803         88
  19.0989         77
  19.1175         72
  19.1360         67
  19.1546         65
  19.1732         72
  19.1918         86
  19.2103         90
  19.2289         97
  19.2475         79
  19.2661         77
  19.2846         69
  19.3032         71
  19.3218         81
  19.3404         92
  19.3589         84
  19.3775         78
  19.3961         83
  19.4147         81
  19.4332         89
  19.4518         76
  19.4704         91
  19.4890         88
  19.5075         90
  19.5261         74
  19.5447         93
  19.5633         84
  19.5818         94
  19.6004         76
  19.6190         94
  19.6376         90
  19.6561         83
  19.6747         84
  19.6933         88
  19.7119         91
  19.7305         85
  19.7490         93
  19.7676         98
  19.7862         79
  19.8048         91
  19.8233         87
  19.8419         98
  19.8605         75
  19.8791         88
  19.8976         96
  19.9162         85
  19.9348        102
  19.9534         69
  19.9719         93
  19.9905         80
  20.0091         93
  20.0277         86
  20.0462         78
  20.0648         99
  20.0834        102
  20.1020         66
  20.1205         93
  20.1391         94
  20.1577         87
  20.1763         77
  20.1948         76
  20.2134         79
  20.2320         73
  20.2506         75
  20.2691         77
  20.2877         97
  20.3063         96
  20.3249         87
  20.3434         90
  20.3620        100
  20.3806         94
  20.3992         94
  20.4177        105
  20.4363        109
  20.4549         98
  20.4735        104
