; (content of file Y:\Sam\Apurva-07-20-2022\puck4\ML_20220718_49_SJD_4_LaB6-2min.raw)
_FILEVERSION = 3
_SAMPLE = ML_20220718_49_SJD_4_LaB6-2min
_+SAMPLE = 
_SITE = USA
_USER = Administrator
_GONIOMETER_CODE = 20
; Goniometer : D8 theta/2theta, stage : Unknown
_ATTACHMENTS_CODE = 0
_GONIOMETER_RADIUS = 200.5
_FIXED_DIVSLIT = 0.6
_FIXED_SAMPLESLIT = 0
_SOLLER_SLITS = 2
_FIXED_DETSLIT = 9.55
_MONOCHROMATOR = 0
; Incident beam monochromator : None
_SOLLER_SLITS_2 = N
_THIN_FILM = N
_BETA_FILTER = Y
_FIXED_ANTISLIT = 5.89
_ANALYZER_CODE = 0
; Received beam analyzer : None
_DATEMEASURED = "26-Jul-2022 12:25:15"
_WL_UNIT = A
_WL1 = 1.5406
_WL2 = 1.54439
_WL3 = 1.39222
_WLRATIO = 0.5
_ANODE = Cu
_V4_INF_CREATOR = XRDWizard
_V4_INF_CREATOR_VERSION = V2.9.0.22
_V4_INF_WIZARD_VERSION = V2.9.0.22
_V4_INF_WIZARD_ADDINS = V2.9.0.22
_V4_INF_WIZARD_DOCTYPE = XRD
_V4_INF_OSUSER = McQueenLab
_V4_INF_USER = Administrator
_V4_INF_SITE = USA
_V4_INF_SAMPLEID = ML_20220718_49_SJD_4_LaB6-2min

; Data for range 1
_DRIVE = COUPLED
_STEPTIME = 5.64
_STEPSIZE = 0.0185756
_STEPMODE = C
_START = 5
_THETA = 2.5
_2THETA = 5
_KHI = 0
_PHI = 0
_X = 0
_Y = 0
_Z = 0
_DETECTOR = 5
; Detector type : Unknown
_DETECTORSLIT = unkn
_AUX1 = 0
_AUX2 = 0
_AUX3 = 0
_TIMESTARTED = 15
_TEMP_RATE = -1
_TEMP_DELAY = -1
_KV = 40
_MA = 40
_RANGE_WL = 1.5406
_3DPLANE = 0
_V4_ADDITIONALDETECTOR = 257
_V4_PSD2THETA = 3.373
_V4_PSDCHANNEL1 = 0
_V4_PSDAPERTURE = 12.68
_V4_PSDTYPE = 5
_V4_PSDFIXED = 0
_V4_COUNTERS_MASK = 4096
_V4_DRIVES_MASK = 0
_V4_ENCODERS_MASK = 0
_2THETACOUNTS = 1
; 2THETA  PSD
   5.0000        123
   5.0186        118
   5.0372        152
   5.0557        119
   5.0743        119
   5.0929        114
   5.1115        117
   5.1300        137
   5.1486        135
   5.1672        121
   5.1858        132
   5.2043        118
   5.2229        127
   5.2415        106
   5.2601        111
   5.2786        125
   5.2972        121
   5.3158        115
   5.3344        124
   5.3529        103
   5.3715        117
   5.3901        116
   5.4087        119
   5.4272        126
   5.4458        106
   5.4644        107
   5.4830        114
   5.5015        115
   5.5201        114
   5.5387        132
   5.5573        129
   5.5758         88
   5.5944        100
   5.6130        104
   5.6316        125
   5.6501         99
   5.6687        103
   5.6873         83
   5.7059        113
   5.7244         89
   5.7430         85
   5.7616        110
   5.7802         98
   5.7988         86
   5.8173        108
   5.8359         99
   5.8545         91
   5.8731        100
   5.8916        102
   5.9102         76
   5.9288        119
   5.9474        101
   5.9659         97
   5.9845         88
   6.0031         88
   6.0217         73
   6.0402         96
   6.0588         96
   6.0774        101
   6.0960        113
   6.1145         93
   6.1331         95
   6.1517         93
   6.1703         87
   6.1888         93
   6.2074        107
   6.2260         78
   6.2446         76
   6.2631         87
   6.2817         81
   6.3003         96
   6.3189         84
   6.3374         92
   6.3560         87
   6.3746         87
   6.3932         90
   6.4117         83
   6.4303         82
   6.4489        100
   6.4675         77
   6.4860         75
   6.5046         89
   6.5232         70
   6.5418         77
   6.5604        106
   6.5789         85
   6.5975         80
   6.6161         59
   6.6347         97
   6.6532         77
   6.6718        102
   6.6904         74
   6.7090         91
   6.7275         85
   6.7461         61
   6.7647         79
   6.7833         88
   6.8018         78
   6.8204         73
   6.8390         71
   6.8576         75
   6.8761         95
   6.8947         66
   6.9133         94
   6.9319         80
   6.9504         72
   6.9690         95
   6.9876        100
   7.0062         71
   7.0247         91
   7.0433         79
   7.0619         80
   7.0805         84
   7.0990         72
   7.1176         87
   7.1362         70
   7.1548         88
   7.1733         65
   7.1919         89
   7.2105         99
   7.2291         76
   7.2476         78
   7.2662         82
   7.2848         66
   7.3034         82
   7.3220         87
   7.3405         89
   7.3591         74
   7.3777         62
   7.3963         96
   7.4148         88
   7.4334         77
   7.4520         82
   7.4706         95
   7.4891         78
   7.5077         73
   7.5263         79
   7.5449         80
   7.5634         78
   7.5820         85
   7.6006         80
   7.6192         95
   7.6377         63
   7.6563        106
   7.6749         87
   7.6935         86
   7.7120         91
   7.7306         97
   7.7492         79
   7.7678         94
   7.7863         92
   7.8049         78
   7.8235         89
   7.8421         96
   7.8606         91
   7.8792         85
   7.8978         86
   7.9164         92
   7.9349         73
   7.9535         68
   7.9721         92
   7.9907         96
   8.0092         85
   8.0278         77
   8.0464         78
   8.0650        104
   8.0835        102
   8.1021        102
   8.1207         88
   8.1393         76
   8.1579         92
   8.1764        111
   8.1950         95
   8.2136        101
   8.2322         93
   8.2507        100
   8.2693         99
   8.2879         91
   8.3065        102
   8.3250         84
   8.3436        108
   8.3622         80
   8.3808         83
   8.3993        100
   8.4179         93
   8.4365         99
   8.4551         96
   8.4736         97
   8.4922         91
   8.5108        100
   8.5294        101
   8.5479        109
   8.5665         99
   8.5851        112
   8.6037         95
   8.6222        111
   8.6408         94
   8.6594        132
   8.6780        106
   8.6965        112
   8.7151        113
   8.7337         92
   8.7523        107
   8.7708         97
   8.7894         94
   8.8080        104
   8.8266        112
   8.8451        110
   8.8637         93
   8.8823        104
   8.9009        116
   8.9195        102
   8.9380        107
   8.9566         91
   8.9752        102
   8.9938        127
   9.0123        114
   9.0309         78
   9.0495        115
   9.0681        118
   9.0866         99
   9.1052         99
   9.1238        115
   9.1424        124
   9.1609        107
   9.1795        118
   9.1981         93
   9.2167        117
   9.2352        108
   9.2538        123
   9.2724        125
   9.2910        112
   9.3095         97
   9.3281        101
   9.3467         93
   9.3653         98
   9.3838        131
   9.4024        100
   9.4210         98
   9.4396        104
   9.4581        136
   9.4767        114
   9.4953        119
   9.5139        117
   9.5324        109
   9.5510        105
   9.5696        107
   9.5882        114
   9.6067        117
   9.6253        109
   9.6439        113
   9.6625        110
   9.6811        131
   9.6996         81
   9.7182        116
   9.7368        111
   9.7554        113
   9.7739         94
   9.7925        136
   9.8111        135
   9.8297        125
   9.8482        113
   9.8668        118
   9.8854        111
   9.9040        124
   9.9225        103
   9.9411        138
   9.9597        130
   9.9783        126
   9.9968        120
  10.0154        107
  10.0340        107
  10.0526        129
  10.0711        136
  10.0897        134
  10.1083        124
  10.1269        133
  10.1454        120
  10.1640         99
  10.1826         98
  10.2012        119
  10.2197        108
  10.2383        115
  10.2569        143
  10.2755        123
  10.2940        100
  10.3126        123
  10.3312        123
  10.3498        115
  10.3683        119
  10.3869        132
  10.4055        113
  10.4241        138
  10.4427        139
  10.4612        117
  10.4798        118
  10.4984        112
  10.5170        124
  10.5355        136
  10.5541        123
  10.5727        110
  10.5913        125
  10.6098        112
  10.6284        115
  10.6470        111
  10.6656        131
  10.6841        122
  10.7027        110
  10.7213        123
  10.7399        120
  10.7584        122
  10.7770        116
  10.7956         94
  10.8142        135
  10.8327        108
  10.8513        111
  10.8699        129
  10.8885        119
  10.9070        116
  10.9256        128
  10.9442        106
  10.9628        123
  10.9813        126
  10.9999        109
  11.0185        109
  11.0371        116
  11.0556        104
  11.0742        114
  11.0928        105
  11.1114        106
  11.1299        118
  11.1485         98
  11.1671        114
  11.1857        102
  11.2043        119
  11.2228        108
  11.2414        117
  11.2600        116
  11.2786        116
  11.2971        130
  11.3157        115
  11.3343        121
  11.3529        124
  11.3714        125
  11.3900        106
  11.4086        127
  11.4272        114
  11.4457        126
  11.4643        106
  11.4829        141
  11.5015        101
  11.5200        116
  11.5386        112
  11.5572        117
  11.5758        112
  11.5943         91
  11.6129        133
  11.6315        129
  11.6501        120
  11.6686        130
  11.6872        121
  11.7058         96
  11.7244        117
  11.7429        117
  11.7615        116
  11.7801        129
  11.7987        139
  11.8172         92
  11.8358        118
  11.8544        116
  11.8730        119
  11.8915        116
  11.9101        107
  11.9287        108
  11.9473        101
  11.9659        102
  11.9844        122
  12.0030        105
  12.0216        119
  12.0402        120
  12.0587        116
  12.0773        102
  12.0959        112
  12.1145        106
  12.1330        131
  12.1516        114
  12.1702        107
  12.1888         95
  12.2073        107
  12.2259        123
  12.2445        106
  12.2631        116
  12.2816        110
  12.3002        112
  12.3188        119
  12.3374        120
  12.3559        135
  12.3745        121
  12.3931        123
  12.4117        117
  12.4302        103
  12.4488        116
  12.4674         96
  12.4860        101
  12.5045        101
  12.5231         94
  12.5417        120
  12.5603        108
  12.5788        107
  12.5974         98
  12.6160         88
  12.6346        107
  12.6531        103
  12.6717        121
  12.6903        100
  12.7089        119
  12.7274        108
  12.7460        111
  12.7646         90
  12.7832        125
  12.8018        104
  12.8203        117
  12.8389        101
  12.8575         91
  12.8761        106
  12.8946        116
  12.9132        114
  12.9318         88
  12.9504        103
  12.9689        113
  12.9875         90
  13.0061        111
  13.0247        110
  13.0432        107
  13.0618        112
  13.0804        118
  13.0990         80
  13.1175         94
  13.1361         97
  13.1547         97
  13.1733         89
  13.1918        107
  13.2104        108
  13.2290         91
  13.2476        108
  13.2661        101
  13.2847         92
  13.3033        111
  13.3219         81
  13.3404         91
  13.3590        106
  13.3776         87
  13.3962        103
  13.4147         96
  13.4333         81
  13.4519         86
  13.4705         87
  13.4890        102
  13.5076         94
  13.5262        100
  13.5448         98
  13.5634         85
  13.5819        100
  13.6005         96
  13.6191         89
  13.6377         80
  13.6562         87
  13.6748         85
  13.6934        106
  13.7120         87
  13.7305        111
  13.7491         72
  13.7677         95
  13.7863         96
  13.8048        101
  13.8234        100
  13.8420         96
  13.8606         98
  13.8791         87
  13.8977        108
  13.9163        101
  13.9349         73
  13.9534         93
  13.9720         89
  13.9906        106
  14.0092         81
  14.0277         98
  14.0463         80
  14.0649         90
  14.0835         79
  14.1020        110
  14.1206         90
  14.1392         92
  14.1578         79
  14.1763        106
  14.1949         91
  14.2135         87
  14.2321         83
  14.2506        107
  14.2692         83
  14.2878         75
  14.3064         88
  14.3250         93
  14.3435         92
  14.3621         92
  14.3807         89
  14.3993         82
  14.4178         89
  14.4364         77
  14.4550         78
  14.4736        100
  14.4921         88
  14.5107        107
  14.5293         79
  14.5479         89
  14.5664         87
  14.5850         91
  14.6036         82
  14.6222         86
  14.6407         95
  14.6593         70
  14.6779         64
  14.6965         67
  14.7150         87
  14.7336         88
  14.7522         92
  14.7708         99
  14.7893        105
  14.8079         84
  14.8265         72
  14.8451         87
  14.8636         94
  14.8822         84
  14.9008         93
  14.9194         80
  14.9379         85
  14.9565         86
  14.9751         94
  14.9937         78
  15.0122         62
  15.0308         74
  15.0494         92
  15.0680         80
  15.0866         80
  15.1051         82
  15.1237         66
  15.1423         91
  15.1609         68
  15.1794         90
  15.1980         89
  15.2166         91
  15.2352         60
  15.2537         70
  15.2723        103
  15.2909         78
  15.3095         95
  15.3280         85
  15.3466         84
  15.3652         85
  15.3838         70
  15.4023         78
  15.4209         75
  15.4395         80
  15.4581         69
  15.4766         78
  15.4952         76
  15.5138         69
  15.5324         82
  15.5509         84
  15.5695         84
  15.5881         80
  15.6067         83
  15.6252         78
  15.6438         81
  15.6624         71
  15.6810         94
  15.6995         90
  15.7181         81
  15.7367         73
  15.7553         81
  15.7738         86
  15.7924         75
  15.8110         77
  15.8296         73
  15.8482         79
  15.8667         73
  15.8853         84
  15.9039         82
  15.9225         89
  15.9410         70
  15.9596         83
  15.9782         76
  15.9968         82
  16.0153         85
  16.0339         83
  16.0525         97
  16.0711         85
  16.0896         93
  16.1082         69
  16.1268         79
  16.1454         78
  16.1639         63
  16.1825         71
  16.2011         92
  16.2197         76
  16.2382         87
  16.2568         80
  16.2754         79
  16.2940         82
  16.3125         65
  16.3311         63
  16.3497         86
  16.3683         70
  16.3868         81
  16.4054         73
  16.4240         68
  16.4426         79
  16.4611         72
  16.4797         87
  16.4983         94
  16.5169         69
  16.5354        113
  16.5540         79
  16.5726         87
  16.5912         75
  16.6097         73
  16.6283         95
  16.6469         85
  16.6655         80
  16.6841         96
  16.7026         87
  16.7212         86
  16.7398         63
  16.7584         83
  16.7769         55
  16.7955         66
  16.8141         85
  16.8327         85
  16.8512         69
  16.8698         87
  16.8884        102
  16.9070         88
  16.9255         80
  16.9441         82
  16.9627         79
  16.9813         90
  16.9998         86
  17.0184         80
  17.0370         72
  17.0556         86
  17.0741         79
  17.0927         69
  17.1113         74
  17.1299         72
  17.1484         90
  17.1670         77
  17.1856         81
  17.2042         82
  17.2227         76
  17.2413         78
  17.2599         74
  17.2785        102
  17.2970         89
  17.3156         91
  17.3342         85
  17.3528         81
  17.3713         85
  17.3899         82
  17.4085         72
  17.4271         78
  17.4457         83
  17.4642         60
  17.4828         82
  17.5014         82
  17.5200         83
  17.5385         82
  17.5571         73
  17.5757         92
  17.5943         77
  17.6128         85
  17.6314         83
  17.6500         69
  17.6686         89
  17.6871         87
  17.7057         79
  17.7243         91
  17.7429         88
  17.7614         84
  17.7800         70
  17.7986         81
  17.8172         75
  17.8357         87
  17.8543         87
  17.8729         76
  17.8915         68
  17.9100         81
  17.9286         91
  17.9472         70
  17.9658         92
  17.9843         67
  18.0029         85
  18.0215         78
  18.0401        106
  18.0586         73
  18.0772         69
  18.0958         76
  18.1144         69
  18.1329         63
  18.1515         90
  18.1701         88
  18.1887         80
  18.2073         87
  18.2258         72
  18.2444         81
  18.2630         88
  18.2816         94
  18.3001         85
  18.3187         76
  18.3373         88
  18.3559         72
  18.3744         83
  18.3930         88
  18.4116         99
  18.4302         92
  18.4487         82
  18.4673         72
  18.4859         81
  18.5045         82
  18.5230         71
  18.5416         73
  18.5602         86
  18.5788         78
  18.5973         78
  18.6159         88
  18.6345         95
  18.6531         80
  18.6716         92
  18.6902         91
  18.7088         86
  18.7274         97
  18.7459         89
  18.7645        119
  18.7831         81
  18.8017         86
  18.8202         80
  18.8388         97
  18.8574         83
  18.8760         74
  18.8945         84
  18.9131         78
  18.9317         81
  18.9503         74
  18.9689         97
  18.9874         73
  19.0060         97
  19.0246         78
  19.0432         93
  19.0617         75
  19.0803         92
  19.0989         83
  19.1175         81
  19.1360         84
  19.1546         79
  19.1732        101
  19.1918         82
  19.2103         84
  19.2289         75
  19.2475         84
  19.2661         98
  19.2846         76
  19.3032         81
  19.3218        103
  19.3404         83
  19.3589         98
  19.3775        100
  19.3961        103
  19.4147         77
  19.4332         89
  19.4518         88
  19.4704         75
  19.4890         89
  19.5075         97
  19.5261         74
  19.5447         76
  19.5633         70
  19.5818        100
  19.6004        102
  19.6190         72
  19.6376         77
  19.6561         84
  19.6747         79
  19.6933         83
  19.7119         66
  19.7305         70
  19.7490         81
  19.7676         89
  19.7862         86
  19.8048         76
  19.8233         68
  19.8419         86
  19.8605         83
  19.8791         92
  19.8976         94
  19.9162         84
  19.9348         87
  19.9534         83
  19.9719         81
  19.9905         82
  20.0091         90
  20.0277         95
  20.0462         83
  20.0648         83
  20.0834        104
  20.1020         89
  20.1205         82
  20.1391         85
  20.1577         88
  20.1763         93
  20.1948         99
  20.2134        106
  20.2320         88
  20.2506        101
  20.2691         83
  20.2877        108
  20.3063         75
  20.3249         94
  20.3434         90
  20.3620         96
  20.3806        104
  20.3992         90
  20.4177         91
  20.4363         84
  20.4549         87
  20.4735         97
