; (content of file Y:\Sam\Apurva-07-20-2022\puck4\ML_20220718_52_SJD_4_LaB6-2min.raw)
_FILEVERSION = 3
_SAMPLE = ML_20220718_52_SJD_4_LaB6-2min
_+SAMPLE = 
_SITE = USA
_USER = Administrator
_GONIOMETER_CODE = 20
; Goniometer : D8 theta/2theta, stage : Unknown
_ATTACHMENTS_CODE = 0
_GONIOMETER_RADIUS = 200.5
_FIXED_DIVSLIT = 0.6
_FIXED_SAMPLESLIT = 0
_SOLLER_SLITS = 2
_FIXED_DETSLIT = 9.55
_MONOCHROMATOR = 0
; Incident beam monochromator : None
_SOLLER_SLITS_2 = N
_THIN_FILM = N
_BETA_FILTER = Y
_FIXED_ANTISLIT = 5.89
_ANALYZER_CODE = 0
; Received beam analyzer : None
_DATEMEASURED = "26-Jul-2022 12:32:25"
_WL_UNIT = A
_WL1 = 1.5406
_WL2 = 1.54439
_WL3 = 1.39222
_WLRATIO = 0.5
_ANODE = Cu
_V4_INF_CREATOR = XRDWizard
_V4_INF_CREATOR_VERSION = V2.9.0.22
_V4_INF_WIZARD_VERSION = V2.9.0.22
_V4_INF_WIZARD_ADDINS = V2.9.0.22
_V4_INF_WIZARD_DOCTYPE = XRD
_V4_INF_OSUSER = McQueenLab
_V4_INF_USER = Administrator
_V4_INF_SITE = USA
_V4_INF_SAMPLEID = ML_20220718_52_SJD_4_LaB6-2min

; Data for range 1
_DRIVE = COUPLED
_STEPTIME = 5.64
_STEPSIZE = 0.0185756
_STEPMODE = C
_START = 5
_THETA = 2.5
_2THETA = 5
_KHI = 0
_PHI = 0
_X = 0
_Y = 0
_Z = 0
_DETECTOR = 5
; Detector type : Unknown
_DETECTORSLIT = unkn
_AUX1 = 0
_AUX2 = 0
_AUX3 = 0
_TIMESTARTED = 14
_TEMP_RATE = -1
_TEMP_DELAY = -1
_KV = 40
_MA = 40
_RANGE_WL = 1.5406
_3DPLANE = 0
_V4_ADDITIONALDETECTOR = 257
_V4_PSD2THETA = 3.4137
_V4_PSDCHANNEL1 = 0
_V4_PSDAPERTURE = 12.68
_V4_PSDTYPE = 5
_V4_PSDFIXED = 0
_V4_COUNTERS_MASK = 4096
_V4_DRIVES_MASK = 0
_V4_ENCODERS_MASK = 0
_2THETACOUNTS = 1
; 2THETA  PSD
   5.0000        140
   5.0186        124
   5.0372        136
   5.0557        143
   5.0743        122
   5.0929        131
   5.1115        115
   5.1300        107
   5.1486        122
   5.1672        127
   5.1858        137
   5.2043         97
   5.2229        128
   5.2415        108
   5.2601        129
   5.2786        117
   5.2972        128
   5.3158        127
   5.3344        123
   5.3529        117
   5.3715        100
   5.3901        102
   5.4087        112
   5.4272        110
   5.4458        101
   5.4644        104
   5.4830        115
   5.5015         93
   5.5201        107
   5.5387        125
   5.5573        100
   5.5758        123
   5.5944         99
   5.6130        114
   5.6316        115
   5.6501        112
   5.6687        105
   5.6873         98
   5.7059        123
   5.7244        106
   5.7430        106
   5.7616        111
   5.7802        104
   5.7988        120
   5.8173        103
   5.8359         96
   5.8545         91
   5.8731         96
   5.8916        113
   5.9102        109
   5.9288         99
   5.9474         93
   5.9659        118
   5.9845         99
   6.0031        101
   6.0217         81
   6.0402         95
   6.0588         96
   6.0774        108
   6.0960        117
   6.1145         76
   6.1331        108
   6.1517         96
   6.1703        104
   6.1888        100
   6.2074         89
   6.2260         83
   6.2446         90
   6.2631         79
   6.2817         94
   6.3003        113
   6.3189         77
   6.3374         92
   6.3560         95
   6.3746         99
   6.3932         99
   6.4117         72
   6.4303        104
   6.4489         88
   6.4675         83
   6.4860         95
   6.5046         93
   6.5232         87
   6.5418         65
   6.5604         68
   6.5789         87
   6.5975         95
   6.6161         89
   6.6347         84
   6.6532         92
   6.6718         76
   6.6904         83
   6.7090        105
   6.7275         77
   6.7461         93
   6.7647         73
   6.7833         91
   6.8018         93
   6.8204        100
   6.8390         90
   6.8576         79
   6.8761         89
   6.8947         73
   6.9133         82
   6.9319         74
   6.9504         71
   6.9690         90
   6.9876         70
   7.0062         61
   7.0247         81
   7.0433         80
   7.0619         87
   7.0805         85
   7.0990         89
   7.1176         74
   7.1362         87
   7.1548         85
   7.1733         88
   7.1919         66
   7.2105         87
   7.2291         67
   7.2476         82
   7.2662         69
   7.2848         78
   7.3034         72
   7.3220         75
   7.3405         86
   7.3591         77
   7.3777         67
   7.3963         88
   7.4148         67
   7.4334         85
   7.4520         90
   7.4706         87
   7.4891         65
   7.5077         78
   7.5263         86
   7.5449         83
   7.5634         78
   7.5820         86
   7.6006         88
   7.6192         91
   7.6377         89
   7.6563         77
   7.6749         84
   7.6935         73
   7.7120         82
   7.7306         83
   7.7492         84
   7.7678         80
   7.7863         77
   7.8049         75
   7.8235         95
   7.8421         75
   7.8606         96
   7.8792         83
   7.8978         94
   7.9164        102
   7.9349         95
   7.9535         93
   7.9721         88
   7.9907         91
   8.0092        111
   8.0278         83
   8.0464         90
   8.0650         91
   8.0835         89
   8.1021        101
   8.1207         85
   8.1393         87
   8.1579         89
   8.1764         88
   8.1950        119
   8.2136        103
   8.2322         99
   8.2507         99
   8.2693         97
   8.2879         85
   8.3065         90
   8.3250        117
   8.3436        108
   8.3622         78
   8.3808         82
   8.3993         84
   8.4179         95
   8.4365         80
   8.4551         93
   8.4736         75
   8.4922         89
   8.5108         99
   8.5294         95
   8.5479        108
   8.5665         92
   8.5851         92
   8.6037        108
   8.6222         99
   8.6408        115
   8.6594        108
   8.6780        116
   8.6965        110
   8.7151         84
   8.7337         93
   8.7523        111
   8.7708        111
   8.7894         96
   8.8080        111
   8.8266        109
   8.8451        111
   8.8637        102
   8.8823        102
   8.9009         90
   8.9195         92
   8.9380        103
   8.9566        125
   8.9752         93
   8.9938        117
   9.0123        117
   9.0309        103
   9.0495        119
   9.0681         97
   9.0866        108
   9.1052        105
   9.1238        137
   9.1424        100
   9.1609         98
   9.1795        103
   9.1981         94
   9.2167        128
   9.2352        120
   9.2538        104
   9.2724         99
   9.2910        100
   9.3095        101
   9.3281        120
   9.3467        119
   9.3653        107
   9.3838        101
   9.4024        107
   9.4210        116
   9.4396        105
   9.4581        109
   9.4767        103
   9.4953        123
   9.5139        105
   9.5324        113
   9.5510         91
   9.5696         93
   9.5882        103
   9.6067         98
   9.6253        114
   9.6439        118
   9.6625        102
   9.6811        100
   9.6996        144
   9.7182        115
   9.7368        122
   9.7554        119
   9.7739        102
   9.7925        101
   9.8111        104
   9.8297        122
   9.8482        119
   9.8668        142
   9.8854        128
   9.9040        115
   9.9225        111
   9.9411        124
   9.9597        120
   9.9783        112
   9.9968        122
  10.0154        105
  10.0340        105
  10.0526        121
  10.0711        126
  10.0897        114
  10.1083        118
  10.1269        120
  10.1454        110
  10.1640        105
  10.1826        114
  10.2012        123
  10.2197        110
  10.2383        109
  10.2569        105
  10.2755        102
  10.2940        124
  10.3126        116
  10.3312        103
  10.3498        101
  10.3683        105
  10.3869        101
  10.4055        129
  10.4241        120
  10.4427        128
  10.4612        110
  10.4798        115
  10.4984        132
  10.5170        113
  10.5355         91
  10.5541        121
  10.5727        100
  10.5913        111
  10.6098         85
  10.6284        120
  10.6470        131
  10.6656        120
  10.6841        113
  10.7027         98
  10.7213        107
  10.7399        134
  10.7584        118
  10.7770        118
  10.7956        119
  10.8142        113
  10.8327        119
  10.8513        122
  10.8699        123
  10.8885        142
  10.9070        132
  10.9256        108
  10.9442        132
  10.9628        111
  10.9813        104
  10.9999        130
  11.0185        117
  11.0371        117
  11.0556        119
  11.0742        115
  11.0928        122
  11.1114        131
  11.1299        121
  11.1485        123
  11.1671        142
  11.1857        118
  11.2043        130
  11.2228        109
  11.2414        108
  11.2600         99
  11.2786         98
  11.2971        110
  11.3157        106
  11.3343        124
  11.3529        117
  11.3714        118
  11.3900        107
  11.4086        134
  11.4272        131
  11.4457        119
  11.4643        128
  11.4829        120
  11.5015        123
  11.5200        119
  11.5386        132
  11.5572        102
  11.5758        112
  11.5943        125
  11.6129        118
  11.6315        107
  11.6501         99
  11.6686        113
  11.6872        124
  11.7058        106
  11.7244        100
  11.7429        116
  11.7615        123
  11.7801        128
  11.7987        118
  11.8172        121
  11.8358        130
  11.8544        138
  11.8730        116
  11.8915         99
  11.9101        101
  11.9287        119
  11.9473        123
  11.9659        130
  11.9844        136
  12.0030         93
  12.0216         92
  12.0402        130
  12.0587         97
  12.0773         99
  12.0959        114
  12.1145        114
  12.1330        117
  12.1516        111
  12.1702        108
  12.1888        111
  12.2073        105
  12.2259        111
  12.2445        123
  12.2631        106
  12.2816        108
  12.3002         90
  12.3188        145
  12.3374        109
  12.3559        110
  12.3745        101
  12.3931         88
  12.4117        104
  12.4302        107
  12.4488        108
  12.4674        117
  12.4860        119
  12.5045        119
  12.5231        107
  12.5417         98
  12.5603        105
  12.5788        124
  12.5974        109
  12.6160        128
  12.6346         95
  12.6531        120
  12.6717        109
  12.6903         92
  12.7089        120
  12.7274        115
  12.7460         92
  12.7646        113
  12.7832        103
  12.8018         97
  12.8203         98
  12.8389        101
  12.8575        119
  12.8761         93
  12.8946        105
  12.9132        121
  12.9318        102
  12.9504         93
  12.9689         99
  12.9875        115
  13.0061         96
  13.0247        104
  13.0432        109
  13.0618        106
  13.0804         99
  13.0990        103
  13.1175        108
  13.1361        130
  13.1547        112
  13.1733        108
  13.1918         89
  13.2104        111
  13.2290         87
  13.2476         95
  13.2661         99
  13.2847         97
  13.3033         95
  13.3219         97
  13.3404         99
  13.3590        102
  13.3776         92
  13.3962         87
  13.4147        108
  13.4333        101
  13.4519        121
  13.4705         95
  13.4890        112
  13.5076         99
  13.5262         98
  13.5448        113
  13.5634         91
  13.5819         86
  13.6005        102
  13.6191         83
  13.6377        100
  13.6562         83
  13.6748         82
  13.6934        111
  13.7120         88
  13.7305         92
  13.7491        112
  13.7677         96
  13.7863         87
  13.8048         81
  13.8234         84
  13.8420        103
  13.8606         94
  13.8791         99
  13.8977         78
  13.9163        107
  13.9349         83
  13.9534         91
  13.9720         90
  13.9906        107
  14.0092         89
  14.0277         82
  14.0463         91
  14.0649        103
  14.0835         79
  14.1020         89
  14.1206         80
  14.1392         82
  14.1578         94
  14.1763         89
  14.1949         79
  14.2135         89
  14.2321         88
  14.2506         76
  14.2692         75
  14.2878         95
  14.3064         74
  14.3250         93
  14.3435         90
  14.3621         92
  14.3807         86
  14.3993         88
  14.4178         86
  14.4364         92
  14.4550        109
  14.4736         80
  14.4921         92
  14.5107         87
  14.5293         86
  14.5479         87
  14.5664         85
  14.5850         76
  14.6036         76
  14.6222         85
  14.6407         91
  14.6593         87
  14.6779         76
  14.6965         80
  14.7150         79
  14.7336         78
  14.7522         97
  14.7708         83
  14.7893         77
  14.8079         79
  14.8265        113
  14.8451         86
  14.8636         79
  14.8822         80
  14.9008         72
  14.9194         70
  14.9379         84
  14.9565         78
  14.9751         67
  14.9937         92
  15.0122        104
  15.0308         77
  15.0494         75
  15.0680         89
  15.0866         72
  15.1051         86
  15.1237         82
  15.1423         87
  15.1609         61
  15.1794         72
  15.1980         73
  15.2166         87
  15.2352         89
  15.2537         76
  15.2723         97
  15.2909         77
  15.3095         69
  15.3280         87
  15.3466         72
  15.3652         91
  15.3838         88
  15.4023         82
  15.4209         86
  15.4395        106
  15.4581         87
  15.4766         77
  15.4952         93
  15.5138         77
  15.5324         74
  15.5509         76
  15.5695         84
  15.5881         90
  15.6067         96
  15.6252         81
  15.6438         79
  15.6624         76
  15.6810         70
  15.6995         79
  15.7181        104
  15.7367         65
  15.7553         97
  15.7738         80
  15.7924         90
  15.8110         95
  15.8296         82
  15.8482         83
  15.8667         84
  15.8853         86
  15.9039         86
  15.9225         83
  15.9410         87
  15.9596         75
  15.9782         95
  15.9968         69
  16.0153         87
  16.0339         98
  16.0525         77
  16.0711         76
  16.0896         74
  16.1082         99
  16.1268         89
  16.1454         88
  16.1639         93
  16.1825         73
  16.2011         70
  16.2197         99
  16.2382         82
  16.2568         93
  16.2754         80
  16.2940         72
  16.3125         88
  16.3311         90
  16.3497         77
  16.3683         85
  16.3868         87
  16.4054         78
  16.4240         68
  16.4426         71
  16.4611         74
  16.4797         80
  16.4983         98
  16.5169         90
  16.5354         89
  16.5540         79
  16.5726         74
  16.5912         74
  16.6097         74
  16.6283         81
  16.6469         82
  16.6655         75
  16.6841         87
  16.7026         99
  16.7212         69
  16.7398         77
  16.7584         86
  16.7769         73
  16.7955         76
  16.8141         72
  16.8327         75
  16.8512         74
  16.8698         62
  16.8884         63
  16.9070         77
  16.9255         85
  16.9441         81
  16.9627         81
  16.9813         86
  16.9998         91
  17.0184         84
  17.0370         72
  17.0556         62
  17.0741         75
  17.0927         83
  17.1113         77
  17.1299         78
  17.1484         79
  17.1670         75
  17.1856         81
  17.2042         73
  17.2227         74
  17.2413         66
  17.2599        102
  17.2785         76
  17.2970         66
  17.3156         63
  17.3342         75
  17.3528         83
  17.3713         87
  17.3899         70
  17.4085         81
  17.4271         68
  17.4457         82
  17.4642         84
  17.4828         80
  17.5014         83
  17.5200         98
  17.5385         83
  17.5571         80
  17.5757         76
  17.5943         77
  17.6128         93
  17.6314         85
  17.6500         82
  17.6686         85
  17.6871         76
  17.7057         85
  17.7243         69
  17.7429         67
  17.7614         80
  17.7800         74
  17.7986         83
  17.8172         69
  17.8357         87
  17.8543         79
  17.8729         90
  17.8915         87
  17.9100         96
  17.9286         77
  17.9472         68
  17.9658         79
  17.9843         70
  18.0029         90
  18.0215         94
  18.0401         72
  18.0586         77
  18.0772         85
  18.0958         80
  18.1144         95
  18.1329         73
  18.1515         67
  18.1701         88
  18.1887         74
  18.2073         83
  18.2258         71
  18.2444         75
  18.2630         91
  18.2816         72
  18.3001         75
  18.3187         87
  18.3373         83
  18.3559         88
  18.3744         88
  18.3930         70
  18.4116         85
  18.4302         89
  18.4487         77
  18.4673         78
  18.4859         75
  18.5045         94
  18.5230         83
  18.5416         84
  18.5602         74
  18.5788         71
  18.5973         84
  18.6159        102
  18.6345         84
  18.6531         68
  18.6716         88
  18.6902         82
  18.7088         70
  18.7274         80
  18.7459         76
  18.7645         87
  18.7831         76
  18.8017         77
  18.8202         78
  18.8388         83
  18.8574         96
  18.8760         85
  18.8945         77
  18.9131         83
  18.9317         65
  18.9503         90
  18.9689         65
  18.9874         93
  19.0060         78
  19.0246         81
  19.0432         81
  19.0617         99
  19.0803         69
  19.0989         94
  19.1175         88
  19.1360         77
  19.1546         86
  19.1732         88
  19.1918        100
  19.2103         84
  19.2289         92
  19.2475         68
  19.2661         76
  19.2846         86
  19.3032         81
  19.3218         74
  19.3404         77
  19.3589         72
  19.3775         77
  19.3961         84
  19.4147         88
  19.4332         78
  19.4518         86
  19.4704         84
  19.4890         82
  19.5075         91
  19.5261         95
  19.5447         81
  19.5633         86
  19.5818         82
  19.6004         93
  19.6190         74
  19.6376         86
  19.6561         81
  19.6747         99
  19.6933         79
  19.7119        104
  19.7305         87
  19.7490         94
  19.7676         69
  19.7862         72
  19.8048         74
  19.8233         97
  19.8419         92
  19.8605         81
  19.8791         89
  19.8976         82
  19.9162         95
  19.9348         99
  19.9534        102
  19.9719         72
  19.9905         87
  20.0091         90
  20.0277         89
  20.0462         90
  20.0648         84
  20.0834         87
  20.1020         78
  20.1205         89
  20.1391         86
  20.1577        102
  20.1763         91
  20.1948         85
  20.2134         88
  20.2320         81
  20.2506         99
  20.2691         87
  20.2877         84
  20.3063         86
  20.3249        100
  20.3434         90
  20.3620         90
  20.3806         71
  20.3992         85
  20.4177         96
  20.4363        103
  20.4549         98
  20.4735         96
