; (content of file Y:\Sam\Apurva-07-20-2022\puck4\ML_20220718_47_SJD_4_LaB6-2min.raw)
_FILEVERSION = 3
_SAMPLE = ML_20220718_47_SJD_4_LaB6-2min
_+SAMPLE = 
_SITE = USA
_USER = Administrator
_GONIOMETER_CODE = 20
; Goniometer : D8 theta/2theta, stage : Unknown
_ATTACHMENTS_CODE = 0
_GONIOMETER_RADIUS = 200.5
_FIXED_DIVSLIT = 0.6
_FIXED_SAMPLESLIT = 0
_SOLLER_SLITS = 2
_FIXED_DETSLIT = 9.55
_MONOCHROMATOR = 0
; Incident beam monochromator : None
_SOLLER_SLITS_2 = N
_THIN_FILM = N
_BETA_FILTER = Y
_FIXED_ANTISLIT = 5.89
_ANALYZER_CODE = 0
; Received beam analyzer : None
_DATEMEASURED = "26-Jul-2022 12:20:28"
_WL_UNIT = A
_WL1 = 1.5406
_WL2 = 1.54439
_WL3 = 1.39222
_WLRATIO = 0.5
_ANODE = Cu
_V4_INF_CREATOR = XRDWizard
_V4_INF_CREATOR_VERSION = V2.9.0.22
_V4_INF_WIZARD_VERSION = V2.9.0.22
_V4_INF_WIZARD_ADDINS = V2.9.0.22
_V4_INF_WIZARD_DOCTYPE = XRD
_V4_INF_OSUSER = McQueenLab
_V4_INF_USER = Administrator
_V4_INF_SITE = USA
_V4_INF_SAMPLEID = ML_20220718_47_SJD_4_LaB6-2min

; Data for range 1
_DRIVE = COUPLED
_STEPTIME = 5.64
_STEPSIZE = 0.0185756
_STEPMODE = C
_START = 5
_THETA = 2.5
_2THETA = 5
_KHI = 0
_PHI = 0
_X = 0
_Y = 0
_Z = 0
_DETECTOR = 5
; Detector type : Unknown
_DETECTORSLIT = unkn
_AUX1 = 0
_AUX2 = 0
_AUX3 = 0
_TIMESTARTED = 15
_TEMP_RATE = -1
_TEMP_DELAY = -1
_KV = 40
_MA = 40
_RANGE_WL = 1.5406
_3DPLANE = 0
_V4_ADDITIONALDETECTOR = 257
_V4_PSD2THETA = 3.4089
_V4_PSDCHANNEL1 = 0
_V4_PSDAPERTURE = 12.68
_V4_PSDTYPE = 5
_V4_PSDFIXED = 0
_V4_COUNTERS_MASK = 4096
_V4_DRIVES_MASK = 0
_V4_ENCODERS_MASK = 0
_2THETACOUNTS = 1
; 2THETA  PSD
   5.0000        140
   5.0186        130
   5.0372        124
   5.0557        126
   5.0743        109
   5.0929        117
   5.1115        129
   5.1300        117
   5.1486        117
   5.1672        127
   5.1858        110
   5.2043        139
   5.2229        121
   5.2415        127
   5.2601        114
   5.2786        108
   5.2972         88
   5.3158        123
   5.3344        137
   5.3529         87
   5.3715        109
   5.3901        136
   5.4087        119
   5.4272        118
   5.4458        127
   5.4644        111
   5.4830        100
   5.5015        105
   5.5201        112
   5.5387        146
   5.5573        105
   5.5758        118
   5.5944        120
   5.6130         97
   5.6316        103
   5.6501        101
   5.6687        104
   5.6873         97
   5.7059         92
   5.7244         99
   5.7430         93
   5.7616        115
   5.7802        113
   5.7988        116
   5.8173         95
   5.8359        106
   5.8545        104
   5.8731        104
   5.8916        129
   5.9102         89
   5.9288         95
   5.9474        117
   5.9659         87
   5.9845        107
   6.0031         98
   6.0217         93
   6.0402         91
   6.0588         95
   6.0774         90
   6.0960         97
   6.1145         92
   6.1331         95
   6.1517         93
   6.1703        103
   6.1888         83
   6.2074        120
   6.2260         76
   6.2446         93
   6.2631         94
   6.2817         86
   6.3003         98
   6.3189         97
   6.3374         83
   6.3560         89
   6.3746         96
   6.3932        111
   6.4117         84
   6.4303        107
   6.4489         94
   6.4675         92
   6.4860        107
   6.5046         85
   6.5232         74
   6.5418         91
   6.5604         82
   6.5789         93
   6.5975         85
   6.6161         85
   6.6347         88
   6.6532         82
   6.6718         98
   6.6904         79
   6.7090         93
   6.7275         97
   6.7461         78
   6.7647         75
   6.7833         67
   6.8018         77
   6.8204         76
   6.8390         73
   6.8576         77
   6.8761         82
   6.8947         91
   6.9133         98
   6.9319         88
   6.9504         76
   6.9690         79
   6.9876         62
   7.0062         83
   7.0247         77
   7.0433         82
   7.0619         76
   7.0805         91
   7.0990         68
   7.1176         57
   7.1362         76
   7.1548         83
   7.1733         80
   7.1919         74
   7.2105         83
   7.2291         85
   7.2476         74
   7.2662         73
   7.2848         76
   7.3034         71
   7.3220         82
   7.3405         89
   7.3591         88
   7.3777         91
   7.3963         74
   7.4148         73
   7.4334         69
   7.4520         93
   7.4706         89
   7.4891         81
   7.5077         69
   7.5263         77
   7.5449         77
   7.5634        110
   7.5820         85
   7.6006         81
   7.6192         83
   7.6377         78
   7.6563         85
   7.6749        115
   7.6935         77
   7.7120         91
   7.7306         88
   7.7492         87
   7.7678         79
   7.7863         96
   7.8049         86
   7.8235         98
   7.8421         83
   7.8606         92
   7.8792         94
   7.8978         92
   7.9164         78
   7.9349         84
   7.9535         89
   7.9721         90
   7.9907         97
   8.0092         93
   8.0278         81
   8.0464         68
   8.0650        103
   8.0835        101
   8.1021         87
   8.1207         97
   8.1393        102
   8.1579         76
   8.1764         86
   8.1950         99
   8.2136         95
   8.2322         89
   8.2507         86
   8.2693         91
   8.2879         98
   8.3065        101
   8.3250        106
   8.3436        105
   8.3622        103
   8.3808        100
   8.3993        104
   8.4179        100
   8.4365        111
   8.4551         96
   8.4736         84
   8.4922        113
   8.5108         85
   8.5294         90
   8.5479        106
   8.5665         93
   8.5851        100
   8.6037         93
   8.6222        107
   8.6408         99
   8.6594        104
   8.6780        107
   8.6965         79
   8.7151        114
   8.7337        116
   8.7523        107
   8.7708         86
   8.7894        110
   8.8080        108
   8.8266         88
   8.8451        130
   8.8637         97
   8.8823        121
   8.9009        102
   8.9195         88
   8.9380        103
   8.9566         93
   8.9752         99
   8.9938        104
   9.0123         91
   9.0309        109
   9.0495        108
   9.0681        118
   9.0866         93
   9.1052        120
   9.1238        113
   9.1424        121
   9.1609         98
   9.1795         94
   9.1981        109
   9.2167        116
   9.2352         91
   9.2538        122
   9.2724        111
   9.2910        116
   9.3095        117
   9.3281        110
   9.3467        105
   9.3653        100
   9.3838        123
   9.4024        110
   9.4210        109
   9.4396        112
   9.4581        108
   9.4767        133
   9.4953        106
   9.5139        102
   9.5324        102
   9.5510        121
   9.5696        104
   9.5882        111
   9.6067        109
   9.6253        109
   9.6439        116
   9.6625        118
   9.6811         98
   9.6996        117
   9.7182        116
   9.7368         95
   9.7554        118
   9.7739        110
   9.7925        110
   9.8111        111
   9.8297        115
   9.8482        121
   9.8668         98
   9.8854        107
   9.9040        118
   9.9225         99
   9.9411        109
   9.9597        114
   9.9783        127
   9.9968        132
  10.0154        127
  10.0340        120
  10.0526        113
  10.0711        125
  10.0897        106
  10.1083        109
  10.1269        124
  10.1454        126
  10.1640        124
  10.1826        125
  10.2012        120
  10.2197        124
  10.2383        113
  10.2569        114
  10.2755        126
  10.2940        126
  10.3126        128
  10.3312        117
  10.3498        121
  10.3683        113
  10.3869        113
  10.4055        105
  10.4241        102
  10.4427        110
  10.4612        139
  10.4798        122
  10.4984        110
  10.5170        116
  10.5355        124
  10.5541        129
  10.5727        100
  10.5913        128
  10.6098        110
  10.6284        131
  10.6470        139
  10.6656        130
  10.6841        113
  10.7027        105
  10.7213        115
  10.7399        123
  10.7584        118
  10.7770        123
  10.7956        113
  10.8142        138
  10.8327        115
  10.8513        133
  10.8699        105
  10.8885        104
  10.9070        107
  10.9256        102
  10.9442        113
  10.9628        122
  10.9813        134
  10.9999        130
  11.0185        127
  11.0371        117
  11.0556        131
  11.0742        133
  11.0928        123
  11.1114        104
  11.1299        120
  11.1485        143
  11.1671        112
  11.1857        111
  11.2043        112
  11.2228        112
  11.2414        130
  11.2600        144
  11.2786        109
  11.2971        103
  11.3157        113
  11.3343        128
  11.3529        101
  11.3714        133
  11.3900        119
  11.4086        109
  11.4272        108
  11.4457        122
  11.4643         91
  11.4829        128
  11.5015        102
  11.5200        111
  11.5386        125
  11.5572        109
  11.5758        121
  11.5943        109
  11.6129        115
  11.6315        133
  11.6501        126
  11.6686        126
  11.6872        133
  11.7058        122
  11.7244        117
  11.7429        122
  11.7615        120
  11.7801         98
  11.7987        121
  11.8172        111
  11.8358        121
  11.8544        122
  11.8730        116
  11.8915        114
  11.9101        115
  11.9287        121
  11.9473        127
  11.9659        124
  11.9844        133
  12.0030         99
  12.0216        114
  12.0402        112
  12.0587        106
  12.0773        105
  12.0959        114
  12.1145        124
  12.1330        111
  12.1516        121
  12.1702        116
  12.1888        100
  12.2073        116
  12.2259        109
  12.2445        111
  12.2631        103
  12.2816         89
  12.3002        113
  12.3188        111
  12.3374        105
  12.3559        102
  12.3745         96
  12.3931        128
  12.4117        101
  12.4302         91
  12.4488        109
  12.4674        119
  12.4860        128
  12.5045        108
  12.5231        120
  12.5417        112
  12.5603         99
  12.5788        110
  12.5974        111
  12.6160        105
  12.6346        107
  12.6531        115
  12.6717         99
  12.6903        114
  12.7089         94
  12.7274         89
  12.7460        101
  12.7646        120
  12.7832        112
  12.8018        108
  12.8203        116
  12.8389         94
  12.8575         94
  12.8761        102
  12.8946        109
  12.9132        104
  12.9318        123
  12.9504        103
  12.9689         82
  12.9875        104
  13.0061         89
  13.0247        102
  13.0432         98
  13.0618         92
  13.0804         94
  13.0990         91
  13.1175         91
  13.1361        117
  13.1547        100
  13.1733        100
  13.1918         85
  13.2104         95
  13.2290         93
  13.2476        115
  13.2661         92
  13.2847        104
  13.3033         89
  13.3219        106
  13.3404         88
  13.3590         94
  13.3776        106
  13.3962         85
  13.4147        102
  13.4333         93
  13.4519         82
  13.4705         83
  13.4890         92
  13.5076        113
  13.5262         69
  13.5448        108
  13.5634         88
  13.5819         94
  13.6005         89
  13.6191         95
  13.6377         76
  13.6562         96
  13.6748         93
  13.6934         85
  13.7120        112
  13.7305         99
  13.7491        112
  13.7677        100
  13.7863         83
  13.8048        106
  13.8234        101
  13.8420        109
  13.8606         85
  13.8791         74
  13.8977        102
  13.9163         86
  13.9349        105
  13.9534         99
  13.9720         80
  13.9906         76
  14.0092         99
  14.0277         98
  14.0463         90
  14.0649         98
  14.0835         87
  14.1020         87
  14.1206         75
  14.1392        101
  14.1578        103
  14.1763         96
  14.1949        101
  14.2135         92
  14.2321         83
  14.2506         87
  14.2692         86
  14.2878         73
  14.3064        106
  14.3250         68
  14.3435         96
  14.3621         86
  14.3807         86
  14.3993         70
  14.4178         75
  14.4364         84
  14.4550         94
  14.4736         80
  14.4921        100
  14.5107         92
  14.5293         95
  14.5479         98
  14.5664         89
  14.5850         81
  14.6036         73
  14.6222         84
  14.6407         91
  14.6593         86
  14.6779         89
  14.6965         95
  14.7150         67
  14.7336         77
  14.7522         78
  14.7708         79
  14.7893         89
  14.8079         72
  14.8265         92
  14.8451         80
  14.8636         76
  14.8822         93
  14.9008         77
  14.9194         87
  14.9379         78
  14.9565         79
  14.9751         76
  14.9937         91
  15.0122         84
  15.0308         87
  15.0494         72
  15.0680         72
  15.0866         82
  15.1051        104
  15.1237         75
  15.1423         86
  15.1609         79
  15.1794         97
  15.1980         96
  15.2166         83
  15.2352         78
  15.2537         99
  15.2723         82
  15.2909         85
  15.3095         78
  15.3280         83
  15.3466         73
  15.3652         89
  15.3838         93
  15.4023         82
  15.4209         76
  15.4395         83
  15.4581        102
  15.4766         71
  15.4952         85
  15.5138         97
  15.5324         75
  15.5509         74
  15.5695         85
  15.5881         90
  15.6067         72
  15.6252         78
  15.6438         74
  15.6624        102
  15.6810         85
  15.6995         75
  15.7181         67
  15.7367         89
  15.7553         69
  15.7738         80
  15.7924         77
  15.8110         93
  15.8296         77
  15.8482         82
  15.8667         79
  15.8853         68
  15.9039        101
  15.9225         80
  15.9410         83
  15.9596         78
  15.9782         74
  15.9968         84
  16.0153         96
  16.0339         91
  16.0525         81
  16.0711         93
  16.0896         89
  16.1082         79
  16.1268         79
  16.1454         72
  16.1639         71
  16.1825         85
  16.2011         63
  16.2197         78
  16.2382         81
  16.2568         65
  16.2754         75
  16.2940         76
  16.3125         74
  16.3311         85
  16.3497         87
  16.3683         80
  16.3868         68
  16.4054         75
  16.4240         82
  16.4426         76
  16.4611         88
  16.4797         86
  16.4983         74
  16.5169         72
  16.5354         78
  16.5540         69
  16.5726         74
  16.5912         84
  16.6097         85
  16.6283         80
  16.6469         79
  16.6655         86
  16.6841         74
  16.7026         79
  16.7212         73
  16.7398         63
  16.7584         78
  16.7769         88
  16.7955         98
  16.8141         83
  16.8327         84
  16.8512         93
  16.8698         87
  16.8884         80
  16.9070         84
  16.9255         68
  16.9441         81
  16.9627         72
  16.9813         62
  16.9998         61
  17.0184         70
  17.0370         68
  17.0556         77
  17.0741         96
  17.0927         97
  17.1113         80
  17.1299         84
  17.1484         77
  17.1670         92
  17.1856         75
  17.2042         90
  17.2227         91
  17.2413         73
  17.2599         94
  17.2785         81
  17.2970         86
  17.3156         77
  17.3342         61
  17.3528         72
  17.3713         89
  17.3899         84
  17.4085         65
  17.4271         90
  17.4457         75
  17.4642         77
  17.4828         88
  17.5014         80
  17.5200         81
  17.5385         85
  17.5571         77
  17.5757         69
  17.5943         85
  17.6128         77
  17.6314         97
  17.6500         92
  17.6686         78
  17.6871         91
  17.7057         91
  17.7243         61
  17.7429         67
  17.7614         69
  17.7800         90
  17.7986         81
  17.8172         69
  17.8357         79
  17.8543         86
  17.8729         79
  17.8915         84
  17.9100         74
  17.9286         68
  17.9472         83
  17.9658         78
  17.9843         79
  18.0029         77
  18.0215         77
  18.0401         84
  18.0586         68
  18.0772         88
  18.0958         84
  18.1144         89
  18.1329         76
  18.1515         89
  18.1701         92
  18.1887         91
  18.2073         86
  18.2258         94
  18.2444         81
  18.2630         97
  18.2816         79
  18.3001         83
  18.3187         89
  18.3373         73
  18.3559         76
  18.3744         62
  18.3930         80
  18.4116         62
  18.4302         73
  18.4487         73
  18.4673         92
  18.4859         76
  18.5045         65
  18.5230         77
  18.5416         77
  18.5602         72
  18.5788         84
  18.5973         90
  18.6159         68
  18.6345         80
  18.6531         84
  18.6716         96
  18.6902         84
  18.7088         99
  18.7274         92
  18.7459         95
  18.7645         75
  18.7831         85
  18.8017         75
  18.8202         89
  18.8388         74
  18.8574         76
  18.8760         89
  18.8945         76
  18.9131         90
  18.9317         73
  18.9503         58
  18.9689         97
  18.9874         87
  19.0060         95
  19.0246         74
  19.0432         97
  19.0617         90
  19.0803         72
  19.0989         98
  19.1175         69
  19.1360         78
  19.1546         87
  19.1732         88
  19.1918         87
  19.2103         79
  19.2289         69
  19.2475         72
  19.2661         78
  19.2846         77
  19.3032        103
  19.3218         81
  19.3404         88
  19.3589         89
  19.3775         93
  19.3961         86
  19.4147         89
  19.4332         84
  19.4518         90
  19.4704         85
  19.4890         79
  19.5075         95
  19.5261         89
  19.5447         78
  19.5633         92
  19.5818         71
  19.6004         87
  19.6190         59
  19.6376         88
  19.6561         84
  19.6747         94
  19.6933         83
  19.7119         82
  19.7305         69
  19.7490         84
  19.7676         90
  19.7862         96
  19.8048         82
  19.8233         75
  19.8419         92
  19.8605         74
  19.8791        102
  19.8976         98
  19.9162         85
  19.9348         79
  19.9534         86
  19.9719         79
  19.9905         88
  20.0091         94
  20.0277         82
  20.0462         91
  20.0648         86
  20.0834         82
  20.1020         69
  20.1205         90
  20.1391         88
  20.1577        106
  20.1763         93
  20.1948         88
  20.2134         74
  20.2320        106
  20.2506         74
  20.2691         87
  20.2877        102
  20.3063         95
  20.3249         97
  20.3434         96
  20.3620         84
  20.3806         81
  20.3992         94
  20.4177         80
  20.4363         97
  20.4549         91
  20.4735         95
