; (content of file Y:\Sam\Apurva-07-20-2022\puck4\ML_20220718_19_SJD_0_LaB6-2min.raw)
_FILEVERSION = 3
_SAMPLE = ML_20220718_19_SJD_0_LaB6-2min
_+SAMPLE = 
_SITE = USA
_USER = Administrator
_GONIOMETER_CODE = 20
; Goniometer : D8 theta/2theta, stage : Unknown
_ATTACHMENTS_CODE = 0
_GONIOMETER_RADIUS = 200.5
_FIXED_DIVSLIT = 0.6
_FIXED_SAMPLESLIT = 0
_SOLLER_SLITS = 2
_FIXED_DETSLIT = 9.55
_MONOCHROMATOR = 0
; Incident beam monochromator : None
_SOLLER_SLITS_2 = N
_THIN_FILM = N
_BETA_FILTER = Y
_FIXED_ANTISLIT = 5.89
_ANALYZER_CODE = 0
; Received beam analyzer : None
_DATEMEASURED = "26-Jul-2022 09:39:54"
_WL_UNIT = A
_WL1 = 1.5406
_WL2 = 1.54439
_WL3 = 1.39222
_WLRATIO = 0.5
_ANODE = Cu
_V4_INF_CREATOR = XRDWizard
_V4_INF_CREATOR_VERSION = V2.9.0.22
_V4_INF_WIZARD_VERSION = V2.9.0.22
_V4_INF_WIZARD_ADDINS = V2.9.0.22
_V4_INF_WIZARD_DOCTYPE = XRD
_V4_INF_OSUSER = McQueenLab
_V4_INF_USER = Administrator
_V4_INF_SITE = USA
_V4_INF_SAMPLEID = ML_20220718_19_SJD_0_LaB6-2min

; Data for range 1
_DRIVE = COUPLED
_STEPTIME = 5.64
_STEPSIZE = 0.0185756
_STEPMODE = C
_START = 5
_THETA = 2.5
_2THETA = 5
_KHI = 0
_PHI = 0
_X = 0
_Y = 0
_Z = 0
_DETECTOR = 5
; Detector type : Unknown
_DETECTORSLIT = unkn
_AUX1 = 0
_AUX2 = 0
_AUX3 = 0
_TIMESTARTED = 14
_TEMP_RATE = -1
_TEMP_DELAY = -1
_KV = 40
_MA = 40
_RANGE_WL = 1.5406
_3DPLANE = 0
_V4_ADDITIONALDETECTOR = 257
_V4_PSD2THETA = 3.4228
_V4_PSDCHANNEL1 = 0
_V4_PSDAPERTURE = 12.68
_V4_PSDTYPE = 5
_V4_PSDFIXED = 0
_V4_COUNTERS_MASK = 4096
_V4_DRIVES_MASK = 0
_V4_ENCODERS_MASK = 0
_2THETACOUNTS = 1
; 2THETA  PSD
   5.0000        146
   5.0186        134
   5.0372        117
   5.0557        152
   5.0743        142
   5.0929        117
   5.1115        112
   5.1300        116
   5.1486        120
   5.1672        115
   5.1858        133
   5.2043        124
   5.2229        132
   5.2415        107
   5.2601        134
   5.2786        109
   5.2972        111
   5.3158        117
   5.3344        116
   5.3529        117
   5.3715        129
   5.3901        116
   5.4087        124
   5.4272        133
   5.4458        118
   5.4644        110
   5.4830        101
   5.5015        118
   5.5201        108
   5.5387        112
   5.5573        130
   5.5758        101
   5.5944        125
   5.6130        107
   5.6316        105
   5.6501        114
   5.6687        103
   5.6873        100
   5.7059        110
   5.7244        109
   5.7430         83
   5.7616        111
   5.7802         86
   5.7988        123
   5.8173        133
   5.8359        104
   5.8545        108
   5.8731        101
   5.8916         78
   5.9102        107
   5.9288        126
   5.9474        102
   5.9659        104
   5.9845        118
   6.0031        113
   6.0217         85
   6.0402        103
   6.0588         91
   6.0774         94
   6.0960         96
   6.1145         94
   6.1331         79
   6.1517         76
   6.1703         67
   6.1888        104
   6.2074         86
   6.2260        100
   6.2446         95
   6.2631         90
   6.2817        100
   6.3003         99
   6.3189         96
   6.3374         96
   6.3560        100
   6.3746         86
   6.3932         88
   6.4117         92
   6.4303         97
   6.4489         85
   6.4675         99
   6.4860         97
   6.5046         91
   6.5232        108
   6.5418         82
   6.5604         84
   6.5789         96
   6.5975        118
   6.6161         81
   6.6347         95
   6.6532         93
   6.6718         89
   6.6904         90
   6.7090         80
   6.7275         83
   6.7461         86
   6.7647         86
   6.7833         84
   6.8018         83
   6.8204        103
   6.8390         91
   6.8576         85
   6.8761         77
   6.8947        100
   6.9133         58
   6.9319         90
   6.9504         68
   6.9690         74
   6.9876         83
   7.0062         80
   7.0247         76
   7.0433         77
   7.0619         74
   7.0805         87
   7.0990         75
   7.1176         83
   7.1362         76
   7.1548         76
   7.1733         81
   7.1919         80
   7.2105         73
   7.2291         74
   7.2476         79
   7.2662         73
   7.2848         79
   7.3034         78
   7.3220         66
   7.3405         70
   7.3591         80
   7.3777         80
   7.3963         87
   7.4148         87
   7.4334         93
   7.4520         95
   7.4706         91
   7.4891         92
   7.5077         87
   7.5263         78
   7.5449         80
   7.5634         75
   7.5820         83
   7.6006         86
   7.6192         80
   7.6377         80
   7.6563         98
   7.6749         95
   7.6935         95
   7.7120         70
   7.7306         90
   7.7492         70
   7.7678        105
   7.7863         77
   7.8049         73
   7.8235         78
   7.8421         93
   7.8606         83
   7.8792         78
   7.8978         94
   7.9164         90
   7.9349         88
   7.9535        102
   7.9721         85
   7.9907         92
   8.0092         85
   8.0278        107
   8.0464        105
   8.0650         93
   8.0835         97
   8.1021         94
   8.1207         95
   8.1393         92
   8.1579         99
   8.1764         90
   8.1950        102
   8.2136         93
   8.2322         89
   8.2507         93
   8.2693         95
   8.2879         79
   8.3065         88
   8.3250         91
   8.3436         88
   8.3622         86
   8.3808         88
   8.3993         89
   8.4179        102
   8.4365         86
   8.4551        123
   8.4736         97
   8.4922        100
   8.5108         87
   8.5294        117
   8.5479         87
   8.5665         95
   8.5851        112
   8.6037         90
   8.6222        111
   8.6408         89
   8.6594         94
   8.6780         91
   8.6965         93
   8.7151         94
   8.7337        106
   8.7523        113
   8.7708        110
   8.7894        106
   8.8080         86
   8.8266        116
   8.8451        101
   8.8637        105
   8.8823        117
   8.9009         96
   8.9195        107
   8.9380        107
   8.9566        104
   8.9752        102
   8.9938        118
   9.0123         91
   9.0309        107
   9.0495         98
   9.0681         93
   9.0866        110
   9.1052        119
   9.1238        106
   9.1424        100
   9.1609        116
   9.1795         97
   9.1981        110
   9.2167         85
   9.2352        106
   9.2538        132
   9.2724        115
   9.2910        123
   9.3095        108
   9.3281        112
   9.3467        110
   9.3653        108
   9.3838        118
   9.4024         97
   9.4210        110
   9.4396        121
   9.4581        110
   9.4767        113
   9.4953        104
   9.5139        114
   9.5324        118
   9.5510        121
   9.5696        109
   9.5882         95
   9.6067        109
   9.6253        120
   9.6439        110
   9.6625         90
   9.6811         98
   9.6996        106
   9.7182        109
   9.7368        103
   9.7554        102
   9.7739        119
   9.7925        118
   9.8111        105
   9.8297        130
   9.8482         98
   9.8668        115
   9.8854        117
   9.9040        125
   9.9225        116
   9.9411        127
   9.9597        135
   9.9783        115
   9.9968        121
  10.0154        105
  10.0340        112
  10.0526        117
  10.0711        118
  10.0897        114
  10.1083        101
  10.1269        126
  10.1454        139
  10.1640        118
  10.1826         99
  10.2012        110
  10.2197        114
  10.2383        115
  10.2569        111
  10.2755        111
  10.2940        121
  10.3126        126
  10.3312        118
  10.3498        131
  10.3683        109
  10.3869        118
  10.4055        121
  10.4241        128
  10.4427        115
  10.4612        132
  10.4798        123
  10.4984        117
  10.5170        131
  10.5355        127
  10.5541        133
  10.5727        119
  10.5913        103
  10.6098        117
  10.6284        137
  10.6470         97
  10.6656        132
  10.6841        106
  10.7027        120
  10.7213        100
  10.7399        127
  10.7584        116
  10.7770        134
  10.7956        111
  10.8142        109
  10.8327         93
  10.8513        112
  10.8699        131
  10.8885        113
  10.9070        106
  10.9256        107
  10.9442        124
  10.9628        106
  10.9813        123
  10.9999        126
  11.0185        129
  11.0371        122
  11.0556        121
  11.0742        121
  11.0928        126
  11.1114        108
  11.1299        112
  11.1485        135
  11.1671        123
  11.1857        110
  11.2043        105
  11.2228        127
  11.2414        111
  11.2600        103
  11.2786        116
  11.2971        118
  11.3157        118
  11.3343        114
  11.3529        107
  11.3714        104
  11.3900        106
  11.4086        122
  11.4272        114
  11.4457        115
  11.4643        114
  11.4829        117
  11.5015         97
  11.5200         97
  11.5386        110
  11.5572        119
  11.5758        115
  11.5943        119
  11.6129        128
  11.6315        102
  11.6501        119
  11.6686        117
  11.6872        105
  11.7058         97
  11.7244        102
  11.7429        108
  11.7615        106
  11.7801        100
  11.7987        124
  11.8172        116
  11.8358        120
  11.8544        122
  11.8730        114
  11.8915         99
  11.9101        111
  11.9287        113
  11.9473        123
  11.9659        130
  11.9844        104
  12.0030        105
  12.0216        103
  12.0402        110
  12.0587        119
  12.0773        122
  12.0959        101
  12.1145        105
  12.1330        135
  12.1516        109
  12.1702        111
  12.1888         95
  12.2073        100
  12.2259        118
  12.2445        104
  12.2631         97
  12.2816         91
  12.3002         98
  12.3188        115
  12.3374        129
  12.3559        103
  12.3745        116
  12.3931         99
  12.4117        107
  12.4302        102
  12.4488        108
  12.4674        107
  12.4860        100
  12.5045         95
  12.5231         96
  12.5417        112
  12.5603        103
  12.5788        102
  12.5974        110
  12.6160        124
  12.6346        124
  12.6531         98
  12.6717        100
  12.6903         90
  12.7089         91
  12.7274        109
  12.7460         95
  12.7646        110
  12.7832         94
  12.8018        100
  12.8203        105
  12.8389         91
  12.8575        112
  12.8761         89
  12.8946        105
  12.9132        101
  12.9318        108
  12.9504        129
  12.9689        106
  12.9875        104
  13.0061        118
  13.0247         93
  13.0432        101
  13.0618        108
  13.0804        121
  13.0990        106
  13.1175        106
  13.1361        104
  13.1547        115
  13.1733         98
  13.1918        100
  13.2104        122
  13.2290        119
  13.2476         92
  13.2661         97
  13.2847        109
  13.3033        106
  13.3219         91
  13.3404         95
  13.3590         83
  13.3776         79
  13.3962        108
  13.4147         88
  13.4333        121
  13.4519         89
  13.4705         94
  13.4890         98
  13.5076        108
  13.5262         92
  13.5448        102
  13.5634        107
  13.5819         97
  13.6005        102
  13.6191         98
  13.6377         88
  13.6562         76
  13.6748         94
  13.6934         84
  13.7120         99
  13.7305         96
  13.7491         99
  13.7677        102
  13.7863         73
  13.8048         97
  13.8234         84
  13.8420         80
  13.8606         77
  13.8791        106
  13.8977         99
  13.9163         88
  13.9349         94
  13.9534         91
  13.9720         86
  13.9906         99
  14.0092         82
  14.0277         92
  14.0463         97
  14.0649         87
  14.0835         94
  14.1020         88
  14.1206         88
  14.1392         76
  14.1578         76
  14.1763         78
  14.1949         94
  14.2135         97
  14.2321         85
  14.2506         87
  14.2692        103
  14.2878         95
  14.3064         85
  14.3250         72
  14.3435         99
  14.3621         90
  14.3807         91
  14.3993        102
  14.4178         93
  14.4364         96
  14.4550        114
  14.4736         77
  14.4921         84
  14.5107         87
  14.5293         99
  14.5479         69
  14.5664         90
  14.5850         82
  14.6036         87
  14.6222         82
  14.6407         91
  14.6593         80
  14.6779         87
  14.6965         90
  14.7150         78
  14.7336         76
  14.7522         80
  14.7708         86
  14.7893         83
  14.8079         89
  14.8265         90
  14.8451         88
  14.8636         80
  14.8822         80
  14.9008         87
  14.9194         73
  14.9379         83
  14.9565         88
  14.9751         83
  14.9937         84
  15.0122         87
  15.0308         72
  15.0494         74
  15.0680         96
  15.0866         97
  15.1051         91
  15.1237         83
  15.1423         80
  15.1609         77
  15.1794         69
  15.1980         74
  15.2166         67
  15.2352         75
  15.2537         79
  15.2723         84
  15.2909         62
  15.3095         89
  15.3280         85
  15.3466         71
  15.3652         83
  15.3838         96
  15.4023         84
  15.4209         99
  15.4395         86
  15.4581         96
  15.4766         80
  15.4952         66
  15.5138         94
  15.5324         80
  15.5509         78
  15.5695         77
  15.5881         72
  15.6067         85
  15.6252         82
  15.6438         76
  15.6624         75
  15.6810         88
  15.6995         69
  15.7181         87
  15.7367         78
  15.7553         88
  15.7738         92
  15.7924         78
  15.8110         69
  15.8296         78
  15.8482         73
  15.8667         81
  15.8853         80
  15.9039         94
  15.9225         94
  15.9410         70
  15.9596         81
  15.9782         94
  15.9968         83
  16.0153         75
  16.0339         80
  16.0525         79
  16.0711         90
  16.0896         98
  16.1082         74
  16.1268         83
  16.1454         83
  16.1639         75
  16.1825         76
  16.2011         77
  16.2197         80
  16.2382         82
  16.2568         75
  16.2754         76
  16.2940         95
  16.3125         87
  16.3311         96
  16.3497         72
  16.3683         83
  16.3868         82
  16.4054         78
  16.4240         82
  16.4426         67
  16.4611         89
  16.4797         75
  16.4983         70
  16.5169         88
  16.5354         75
  16.5540         75
  16.5726         70
  16.5912         71
  16.6097         56
  16.6283         94
  16.6469         80
  16.6655         75
  16.6841         69
  16.7026         93
  16.7212         90
  16.7398         75
  16.7584         78
  16.7769         71
  16.7955         69
  16.8141         84
  16.8327         85
  16.8512         84
  16.8698         83
  16.8884         77
  16.9070         85
  16.9255         79
  16.9441         88
  16.9627         71
  16.9813         72
  16.9998         68
  17.0184         71
  17.0370         81
  17.0556         85
  17.0741         84
  17.0927         88
  17.1113         92
  17.1299         77
  17.1484         83
  17.1670         78
  17.1856         72
  17.2042         75
  17.2227         88
  17.2413         88
  17.2599         82
  17.2785         86
  17.2970         95
  17.3156         69
  17.3342         66
  17.3528         77
  17.3713         99
  17.3899         87
  17.4085         73
  17.4271         87
  17.4457         86
  17.4642         81
  17.4828         64
  17.5014         81
  17.5200         73
  17.5385         77
  17.5571         70
  17.5757         68
  17.5943         89
  17.6128         85
  17.6314         66
  17.6500         69
  17.6686         77
  17.6871         93
  17.7057         78
  17.7243         72
  17.7429         75
  17.7614         70
  17.7800         76
  17.7986         75
  17.8172         76
  17.8357         88
  17.8543         78
  17.8729         78
  17.8915         81
  17.9100         72
  17.9286         90
  17.9472         75
  17.9658         89
  17.9843         75
  18.0029         85
  18.0215         87
  18.0401         78
  18.0586         78
  18.0772         93
  18.0958         95
  18.1144         70
  18.1329         73
  18.1515         82
  18.1701         85
  18.1887         71
  18.2073         86
  18.2258         92
  18.2444         86
  18.2630         74
  18.2816         80
  18.3001         75
  18.3187         82
  18.3373         85
  18.3559         92
  18.3744         97
  18.3930         88
  18.4116         81
  18.4302         79
  18.4487         78
  18.4673         83
  18.4859         83
  18.5045        101
  18.5230         89
  18.5416         80
  18.5602         66
  18.5788         96
  18.5973         96
  18.6159         98
  18.6345         77
  18.6531         86
  18.6716         83
  18.6902         95
  18.7088         75
  18.7274         86
  18.7459         91
  18.7645         80
  18.7831         86
  18.8017         92
  18.8202         87
  18.8388         93
  18.8574         75
  18.8760         81
  18.8945         85
  18.9131         83
  18.9317         79
  18.9503         99
  18.9689         92
  18.9874         74
  19.0060         80
  19.0246         73
  19.0432        110
  19.0617         85
  19.0803         81
  19.0989         80
  19.1175         96
  19.1360         77
  19.1546         74
  19.1732         94
  19.1918         79
  19.2103         89
  19.2289         84
  19.2475         99
  19.2661         76
  19.2846         71
  19.3032         78
  19.3218         80
  19.3404         83
  19.3589         77
  19.3775         79
  19.3961         77
  19.4147         88
  19.4332         96
  19.4518         87
  19.4704         79
  19.4890         90
  19.5075         78
  19.5261         85
  19.5447         97
  19.5633         67
  19.5818         85
  19.6004         76
  19.6190         82
  19.6376         86
  19.6561         96
  19.6747         94
  19.6933         72
  19.7119         88
  19.7305         81
  19.7490         83
  19.7676         98
  19.7862        102
  19.8048         84
  19.8233         80
  19.8419         83
  19.8605         89
  19.8791         92
  19.8976         97
  19.9162         77
  19.9348         81
  19.9534         93
  19.9719         90
  19.9905        101
  20.0091         92
  20.0277         88
  20.0462         85
  20.0648         73
  20.0834         77
  20.1020         87
  20.1205         88
  20.1391         72
  20.1577         86
  20.1763         88
  20.1948         84
  20.2134         95
  20.2320         83
  20.2506         81
  20.2691         84
  20.2877         76
  20.3063         83
  20.3249        103
  20.3434        117
  20.3620         94
  20.3806        106
  20.3992         85
  20.4177        107
  20.4363         97
  20.4549         92
  20.4735         94
