; (content of file Y:\Sam\Apurva-07-20-2022\puck2\ML_20220720_24_SJD_0_LaB6-1min.raw)
_FILEVERSION = 3
_SAMPLE = ML_20220720_24_SJD_0_LaB6-1min
_+SAMPLE = 
_SITE = USA
_USER = Administrator
_GONIOMETER_CODE = 20
; Goniometer : D8 theta/2theta, stage : Unknown
_ATTACHMENTS_CODE = 0
_GONIOMETER_RADIUS = 200.5
_FIXED_DIVSLIT = 0.6
_FIXED_SAMPLESLIT = 0
_SOLLER_SLITS = 2
_FIXED_DETSLIT = 9.55
_MONOCHROMATOR = 0
; Incident beam monochromator : None
_SOLLER_SLITS_2 = N
_THIN_FILM = N
_BETA_FILTER = Y
_FIXED_ANTISLIT = 5.89
_ANALYZER_CODE = 0
; Received beam analyzer : None
_DATEMEASURED = "25-Jul-2022 18:31:09"
_WL_UNIT = A
_WL1 = 1.5406
_WL2 = 1.54439
_WL3 = 1.39222
_WLRATIO = 0.5
_ANODE = Cu
_V4_INF_CREATOR = XRDWizard
_V4_INF_CREATOR_VERSION = V2.9.0.22
_V4_INF_WIZARD_VERSION = V2.9.0.22
_V4_INF_WIZARD_ADDINS = V2.9.0.22
_V4_INF_WIZARD_DOCTYPE = XRD
_V4_INF_OSUSER = McQueenLab
_V4_INF_USER = Administrator
_V4_INF_SITE = USA
_V4_INF_SAMPLEID = ML_20220720_24_SJD_0_LaB6-1min

; Data for range 1
_DRIVE = COUPLED
_STEPTIME = 4.23
_STEPSIZE = 0.0185756
_STEPMODE = C
_START = 5
_THETA = 2.5
_2THETA = 5
_KHI = 0
_PHI = 0
_X = 0
_Y = 0
_Z = 0
_DETECTOR = 5
; Detector type : Unknown
_DETECTORSLIT = unkn
_AUX1 = 0
_AUX2 = 0
_AUX3 = 0
_TIMESTARTED = 14
_TEMP_RATE = -1
_TEMP_DELAY = -1
_KV = 40
_MA = 40
_RANGE_WL = 1.5406
_3DPLANE = 0
_V4_ADDITIONALDETECTOR = 257
_V4_PSD2THETA = 3.3766
_V4_PSDCHANNEL1 = 0
_V4_PSDAPERTURE = 12.68
_V4_PSDTYPE = 5
_V4_PSDFIXED = 0
_V4_COUNTERS_MASK = 4096
_V4_DRIVES_MASK = 0
_V4_ENCODERS_MASK = 0
_2THETACOUNTS = 1
; 2THETA  PSD
   5.0000         85
   5.0186         92
   5.0372         96
   5.0557         82
   5.0743         87
   5.0929         81
   5.1115         80
   5.1300         90
   5.1486         98
   5.1672         67
   5.1858         82
   5.2043        104
   5.2229        105
   5.2415         94
   5.2601         93
   5.2786         74
   5.2972         89
   5.3158         79
   5.3344        106
   5.3529         82
   5.3715         76
   5.3901         93
   5.4087         79
   5.4272         87
   5.4458         70
   5.4644         77
   5.4830         89
   5.5015         90
   5.5201         71
   5.5387         76
   5.5573         69
   5.5758         66
   5.5944         77
   5.6130         93
   5.6316         92
   5.6501         85
   5.6687         78
   5.6873         93
   5.7059         87
   5.7244         70
   5.7430         74
   5.7616         79
   5.7802         83
   5.7988         78
   5.8173         85
   5.8359         59
   5.8545         83
   5.8731         84
   5.8916         60
   5.9102         76
   5.9288         84
   5.9474         74
   5.9659         75
   5.9845         62
   6.0031         66
   6.0217         80
   6.0402         79
   6.0588         68
   6.0774         65
   6.0960         69
   6.1145         84
   6.1331         76
   6.1517         78
   6.1703         65
   6.1888         88
   6.2074         80
   6.2260         65
   6.2446         77
   6.2631         47
   6.2817         51
   6.3003         76
   6.3189         66
   6.3374         81
   6.3560         72
   6.3746         65
   6.3932         61
   6.4117         54
   6.4303         50
   6.4489         69
   6.4675         56
   6.4860         64
   6.5046         73
   6.5232         59
   6.5418         67
   6.5604         74
   6.5789         62
   6.5975         76
   6.6161         65
   6.6347         69
   6.6532         69
   6.6718         61
   6.6904         64
   6.7090         56
   6.7275         60
   6.7461         61
   6.7647         63
   6.7833         61
   6.8018         71
   6.8204         53
   6.8390         66
   6.8576         58
   6.8761         66
   6.8947         59
   6.9133         62
   6.9319         78
   6.9504         68
   6.9690         55
   6.9876         67
   7.0062         61
   7.0247         66
   7.0433         54
   7.0619         61
   7.0805         44
   7.0990         48
   7.1176         64
   7.1362         60
   7.1548         55
   7.1733         46
   7.1919         61
   7.2105         64
   7.2291         70
   7.2476         53
   7.2662         52
   7.2848         60
   7.3034         57
   7.3220         54
   7.3405         70
   7.3591         73
   7.3777         55
   7.3963         61
   7.4148         52
   7.4334         42
   7.4520         57
   7.4706         66
   7.4891         66
   7.5077         64
   7.5263         65
   7.5449         65
   7.5634         51
   7.5820         63
   7.6006         56
   7.6192         66
   7.6377         64
   7.6563         60
   7.6749         77
   7.6935         65
   7.7120         65
   7.7306         61
   7.7492         68
   7.7678         65
   7.7863         50
   7.8049         65
   7.8235         52
   7.8421         62
   7.8606         69
   7.8792         66
   7.8978         56
   7.9164         77
   7.9349         59
   7.9535         64
   7.9721         72
   7.9907         58
   8.0092         78
   8.0278         65
   8.0464         63
   8.0650         58
   8.0835         82
   8.1021         76
   8.1207         75
   8.1393         69
   8.1579         62
   8.1764         62
   8.1950         80
   8.2136         70
   8.2322         77
   8.2507         76
   8.2693         67
   8.2879         68
   8.3065         69
   8.3250         62
   8.3436         64
   8.3622         62
   8.3808         75
   8.3993         76
   8.4179         85
   8.4365         77
   8.4551         66
   8.4736         66
   8.4922         72
   8.5108         88
   8.5294         98
   8.5479         75
   8.5665         72
   8.5851         70
   8.6037         83
   8.6222         83
   8.6408         65
   8.6594         60
   8.6780         63
   8.6965         69
   8.7151         71
   8.7337         77
   8.7523         68
   8.7708         81
   8.7894         63
   8.8080         74
   8.8266         73
   8.8451         66
   8.8637         71
   8.8823         81
   8.9009         89
   8.9195         70
   8.9380         78
   8.9566         79
   8.9752         84
   8.9938         65
   9.0123         76
   9.0309         79
   9.0495         71
   9.0681         88
   9.0866         92
   9.1052         79
   9.1238         70
   9.1424         60
   9.1609         85
   9.1795         84
   9.1981         73
   9.2167         86
   9.2352         84
   9.2538         82
   9.2724         96
   9.2910         74
   9.3095         90
   9.3281         80
   9.3467         85
   9.3653         88
   9.3838         84
   9.4024         87
   9.4210         73
   9.4396         74
   9.4581         83
   9.4767         80
   9.4953         85
   9.5139         80
   9.5324         81
   9.5510         68
   9.5696         88
   9.5882         80
   9.6067         86
   9.6253         77
   9.6439         74
   9.6625         73
   9.6811         81
   9.6996         69
   9.7182         77
   9.7368         77
   9.7554         85
   9.7739         70
   9.7925         77
   9.8111         84
   9.8297         84
   9.8482        101
   9.8668         90
   9.8854         76
   9.9040         87
   9.9225         83
   9.9411         90
   9.9597         75
   9.9783         89
   9.9968        108
  10.0154         93
  10.0340         89
  10.0526         96
  10.0711         88
  10.0897         87
  10.1083         99
  10.1269         89
  10.1454         92
  10.1640         98
  10.1826        117
  10.2012         96
  10.2197         92
  10.2383         93
  10.2569         90
  10.2755         88
  10.2940        101
  10.3126         94
  10.3312         71
  10.3498         92
  10.3683         89
  10.3869         93
  10.4055         90
  10.4241         92
  10.4427         77
  10.4612         80
  10.4798         96
  10.4984         94
  10.5170         82
  10.5355         96
  10.5541         88
  10.5727         81
  10.5913         69
  10.6098         78
  10.6284         76
  10.6470         99
  10.6656         72
  10.6841         94
  10.7027         84
  10.7213         71
  10.7399        106
  10.7584         81
  10.7770         87
  10.7956         91
  10.8142         79
  10.8327         85
  10.8513        101
  10.8699         91
  10.8885         82
  10.9070         77
  10.9256         78
  10.9442         89
  10.9628         85
  10.9813         80
  10.9999         83
  11.0185         80
  11.0371         92
  11.0556         92
  11.0742        106
  11.0928         87
  11.1114         89
  11.1299         83
  11.1485        101
  11.1671         96
  11.1857         91
  11.2043        104
  11.2228         98
  11.2414         85
  11.2600         82
  11.2786         86
  11.2971         93
  11.3157         87
  11.3343         81
  11.3529         96
  11.3714         90
  11.3900         71
  11.4086         78
  11.4272         71
  11.4457         87
  11.4643         74
  11.4829         79
  11.5015         86
  11.5200         86
  11.5386         83
  11.5572         83
  11.5758         79
  11.5943         93
  11.6129         74
  11.6315         75
  11.6501         92
  11.6686        102
  11.6872         69
  11.7058         69
  11.7244         85
  11.7429         99
  11.7615         84
  11.7801         90
  11.7987         77
  11.8172         88
  11.8358         73
  11.8544        102
  11.8730         92
  11.8915         82
  11.9101         89
  11.9287        100
  11.9473         70
  11.9659         77
  11.9844         66
  12.0030         92
  12.0216         91
  12.0402         83
  12.0587         90
  12.0773         83
  12.0959         81
  12.1145         88
  12.1330         87
  12.1516         62
  12.1702         93
  12.1888         83
  12.2073         91
  12.2259         93
  12.2445         85
  12.2631         83
  12.2816         69
  12.3002         76
  12.3188        104
  12.3374         87
  12.3559         76
  12.3745         90
  12.3931         74
  12.4117         90
  12.4302         81
  12.4488         94
  12.4674         77
  12.4860         74
  12.5045         77
  12.5231         81
  12.5417         64
  12.5603         82
  12.5788         89
  12.5974         92
  12.6160         81
  12.6346         72
  12.6531         72
  12.6717         94
  12.6903         65
  12.7089         77
  12.7274         83
  12.7460         69
  12.7646         86
  12.7832        102
  12.8018         75
  12.8203         81
  12.8389         78
  12.8575         77
  12.8761         61
  12.8946         76
  12.9132         77
  12.9318         77
  12.9504         66
  12.9689         89
  12.9875         78
  13.0061         62
  13.0247         73
  13.0432         74
  13.0618         71
  13.0804         80
  13.0990        100
  13.1175         82
  13.1361         84
  13.1547         67
  13.1733         81
  13.1918         79
  13.2104         78
  13.2290         83
  13.2476         70
  13.2661         71
  13.2847         73
  13.3033         85
  13.3219         71
  13.3404         67
  13.3590         69
  13.3776         78
  13.3962         66
  13.4147         78
  13.4333         59
  13.4519         86
  13.4705         69
  13.4890         65
  13.5076         64
  13.5262         80
  13.5448         81
  13.5634         56
  13.5819         70
  13.6005         80
  13.6191         93
  13.6377         83
  13.6562         67
  13.6748         72
  13.6934         73
  13.7120         85
  13.7305         68
  13.7491         65
  13.7677         76
  13.7863         73
  13.8048         81
  13.8234         73
  13.8420         57
  13.8606         55
  13.8791         62
  13.8977         67
  13.9163         74
  13.9349         71
  13.9534         88
  13.9720         48
  13.9906         74
  14.0092         79
  14.0277         76
  14.0463         68
  14.0649         70
  14.0835         71
  14.1020         64
  14.1206         66
  14.1392         70
  14.1578         64
  14.1763         71
  14.1949         64
  14.2135         83
  14.2321         58
  14.2506         56
  14.2692         69
  14.2878         68
  14.3064         69
  14.3250         77
  14.3435         60
  14.3621         71
  14.3807         62
  14.3993         62
  14.4178         64
  14.4364         65
  14.4550         77
  14.4736         65
  14.4921         69
  14.5107         69
  14.5293         66
  14.5479         60
  14.5664         54
  14.5850         61
  14.6036         63
  14.6222         53
  14.6407         64
  14.6593         60
  14.6779         63
  14.6965         71
  14.7150         69
  14.7336         59
  14.7522         67
  14.7708         57
  14.7893         70
  14.8079         70
  14.8265         65
  14.8451         53
  14.8636         58
  14.8822         59
  14.9008         58
  14.9194         57
  14.9379         71
  14.9565         58
  14.9751         68
  14.9937         53
  15.0122         61
  15.0308         56
  15.0494         57
  15.0680         52
  15.0866         64
  15.1051         54
  15.1237         64
  15.1423         61
  15.1609         65
  15.1794         69
  15.1980         56
  15.2166         64
  15.2352         52
  15.2537         51
  15.2723         68
  15.2909         56
  15.3095         72
  15.3280         53
  15.3466         69
  15.3652         59
  15.3838         44
  15.4023         64
  15.4209         49
  15.4395         57
  15.4581         65
  15.4766         42
  15.4952         47
  15.5138         49
  15.5324         70
  15.5509         63
  15.5695         58
  15.5881         63
  15.6067         54
  15.6252         53
  15.6438         49
  15.6624         74
  15.6810         55
  15.6995         68
  15.7181         53
  15.7367         71
  15.7553         42
  15.7738         73
  15.7924         62
  15.8110         44
  15.8296         60
  15.8482         62
  15.8667         64
  15.8853         64
  15.9039         69
  15.9225         67
  15.9410         56
  15.9596         59
  15.9782         73
  15.9968         50
  16.0153         62
  16.0339         41
  16.0525         64
  16.0711         56
  16.0896         71
  16.1082         67
  16.1268         76
  16.1454         63
  16.1639         51
  16.1825         51
  16.2011         53
  16.2197         63
  16.2382         58
  16.2568         54
  16.2754         65
  16.2940         51
  16.3125         67
  16.3311         63
  16.3497         52
  16.3683         60
  16.3868         60
  16.4054         46
  16.4240         67
  16.4426         77
  16.4611         60
  16.4797         63
  16.4983         52
  16.5169         59
  16.5354         44
  16.5540         64
  16.5726         60
  16.5912         52
  16.6097         59
  16.6283         66
  16.6469         59
  16.6655         77
  16.6841         44
  16.7026         62
  16.7212         62
  16.7398         55
  16.7584         78
  16.7769         58
  16.7955         56
  16.8141         53
  16.8327         51
  16.8512         85
  16.8698         57
  16.8884         50
  16.9070         76
  16.9255         55
  16.9441         63
  16.9627         70
  16.9813         68
  16.9998         71
  17.0184         55
  17.0370         52
  17.0556         68
  17.0741         61
  17.0927         46
  17.1113         53
  17.1299         65
  17.1484         55
  17.1670         64
  17.1856         54
  17.2042         53
  17.2227         62
  17.2413         50
  17.2599         64
  17.2785         53
  17.2970         43
  17.3156         68
  17.3342         61
  17.3528         68
  17.3713         66
  17.3899         65
  17.4085         48
  17.4271         63
  17.4457         63
  17.4642         66
  17.4828         55
  17.5014         58
  17.5200         51
  17.5385         66
  17.5571         55
  17.5757         55
  17.5943         77
  17.6128         71
  17.6314         58
  17.6500         62
  17.6686         77
  17.6871         61
  17.7057         51
  17.7243         55
  17.7429         62
  17.7614         71
  17.7800         45
  17.7986         58
  17.8172         59
  17.8357         59
  17.8543         48
  17.8729         61
  17.8915         64
  17.9100         77
  17.9286         55
  17.9472         66
  17.9658         48
  17.9843         55
  18.0029         59
  18.0215         57
  18.0401         67
  18.0586         58
  18.0772         51
  18.0958         63
  18.1144         59
  18.1329         74
  18.1515         47
  18.1701         55
  18.1887         52
  18.2073         65
  18.2258         51
  18.2444         49
  18.2630         49
  18.2816         65
  18.3001         64
  18.3187         69
  18.3373         58
  18.3559         64
  18.3744         64
  18.3930         65
  18.4116         59
  18.4302         63
  18.4487         69
  18.4673         65
  18.4859         49
  18.5045         67
  18.5230         72
  18.5416         60
  18.5602         64
  18.5788         55
  18.5973         59
  18.6159         61
  18.6345         44
  18.6531         58
  18.6716         63
  18.6902         72
  18.7088         60
  18.7274         84
  18.7459         64
  18.7645         67
  18.7831         64
  18.8017         44
  18.8202         63
  18.8388         66
  18.8574         58
  18.8760         55
  18.8945         81
  18.9131         57
  18.9317         65
  18.9503         54
  18.9689         42
  18.9874         70
  19.0060         61
  19.0246         64
  19.0432         65
  19.0617         72
  19.0803         65
  19.0989         65
  19.1175         50
  19.1360         62
  19.1546         70
  19.1732         56
  19.1918         72
  19.2103         80
  19.2289         67
  19.2475         68
  19.2661         68
  19.2846         63
  19.3032         61
  19.3218         62
  19.3404         60
  19.3589         54
  19.3775         53
  19.3961         61
  19.4147         67
  19.4332         45
  19.4518         49
  19.4704         72
  19.4890         67
  19.5075         60
  19.5261         66
  19.5447         63
  19.5633         57
  19.5818         54
  19.6004         49
  19.6190         56
  19.6376         60
  19.6561         74
  19.6747         63
  19.6933         65
  19.7119         58
  19.7305         69
  19.7490         76
  19.7676         75
  19.7862         61
  19.8048         65
  19.8233         79
  19.8419         62
  19.8605         77
  19.8791         67
  19.8976         68
  19.9162         69
  19.9348         65
  19.9534         63
  19.9719         59
  19.9905         65
  20.0091         65
  20.0277         63
  20.0462         55
  20.0648         79
  20.0834         76
  20.1020         67
  20.1205         78
  20.1391         64
  20.1577         51
  20.1763         64
  20.1948         70
  20.2134         57
  20.2320         66
  20.2506         51
  20.2691         69
  20.2877         61
  20.3063         80
  20.3249         78
  20.3434         72
  20.3620         61
  20.3806         84
  20.3992         61
  20.4177         52
  20.4363         71
  20.4549         68
  20.4735         58
