; (content of file Y:\Sam\Apurva-07-20-2022\puck1\ML_20220721_21_SJD_0_LaB6-4min.raw)
_FILEVERSION = 3
_SAMPLE = ML_20220721_21_SJD_0_LaB6-4min
_+SAMPLE = 
_SITE = USA
_USER = Administrator
_GONIOMETER_CODE = 20
; Goniometer : D8 theta/2theta, stage : Unknown
_ATTACHMENTS_CODE = 0
_GONIOMETER_RADIUS = 200.5
_FIXED_DIVSLIT = 0.6
_FIXED_SAMPLESLIT = 0
_SOLLER_SLITS = 2
_FIXED_DETSLIT = 9.55
_MONOCHROMATOR = 0
; Incident beam monochromator : None
_SOLLER_SLITS_2 = N
_THIN_FILM = N
_BETA_FILTER = Y
_FIXED_ANTISLIT = 5.89
_ANALYZER_CODE = 0
; Received beam analyzer : None
_DATEMEASURED = "25-Jul-2022 15:26:41"
_WL_UNIT = A
_WL1 = 1.5406
_WL2 = 1.54439
_WL3 = 1.39222
_WLRATIO = 0.5
_ANODE = Cu
_V4_INF_CREATOR = XRDWizard
_V4_INF_CREATOR_VERSION = V2.9.0.22
_V4_INF_WIZARD_VERSION = V2.9.0.22
_V4_INF_WIZARD_ADDINS = V2.9.0.22
_V4_INF_WIZARD_DOCTYPE = XRD
_V4_INF_OSUSER = McQueenLab
_V4_INF_USER = Administrator
_V4_INF_SITE = USA
_V4_INF_SAMPLEID = ML_20220721_21_SJD_0_LaB6-4min

; Data for range 1
_DRIVE = COUPLED
_STEPTIME = 11.28
_STEPSIZE = 0.0185756
_STEPMODE = C
_START = 5
_THETA = 2.5
_2THETA = 5
_KHI = 0
_PHI = 0
_X = 0
_Y = 0
_Z = 0
_DETECTOR = 5
; Detector type : Unknown
_DETECTORSLIT = unkn
_AUX1 = 0
_AUX2 = 0
_AUX3 = 0
_TIMESTARTED = 15
_TEMP_RATE = -1
_TEMP_DELAY = -1
_KV = 40
_MA = 40
_RANGE_WL = 1.5406
_3DPLANE = 0
_V4_ADDITIONALDETECTOR = 257
_V4_PSD2THETA = 3.3675
_V4_PSDCHANNEL1 = 0
_V4_PSDAPERTURE = 12.68
_V4_PSDTYPE = 5
_V4_PSDFIXED = 0
_V4_COUNTERS_MASK = 4096
_V4_DRIVES_MASK = 0
_V4_ENCODERS_MASK = 0
_2THETACOUNTS = 1
; 2THETA  PSD
   5.0000        267
   5.0186        290
   5.0372        267
   5.0557        254
   5.0743        268
   5.0929        260
   5.1115        241
   5.1300        267
   5.1486        271
   5.1672        251
   5.1858        263
   5.2043        242
   5.2229        268
   5.2415        241
   5.2601        251
   5.2786        237
   5.2972        235
   5.3158        264
   5.3344        244
   5.3529        238
   5.3715        258
   5.3901        244
   5.4087        250
   5.4272        232
   5.4458        264
   5.4644        243
   5.4830        237
   5.5015        249
   5.5201        242
   5.5387        243
   5.5573        223
   5.5758        215
   5.5944        248
   5.6130        225
   5.6316        230
   5.6501        228
   5.6687        196
   5.6873        202
   5.7059        241
   5.7244        227
   5.7430        225
   5.7616        244
   5.7802        224
   5.7988        205
   5.8173        210
   5.8359        213
   5.8545        217
   5.8731        181
   5.8916        207
   5.9102        218
   5.9288        169
   5.9474        196
   5.9659        178
   5.9845        213
   6.0031        195
   6.0217        205
   6.0402        194
   6.0588        205
   6.0774        183
   6.0960        219
   6.1145        212
   6.1331        207
   6.1517        182
   6.1703        180
   6.1888        167
   6.2074        212
   6.2260        185
   6.2446        199
   6.2631        210
   6.2817        181
   6.3003        179
   6.3189        183
   6.3374        176
   6.3560        199
   6.3746        194
   6.3932        168
   6.4117        214
   6.4303        204
   6.4489        183
   6.4675        193
   6.4860        196
   6.5046        177
   6.5232        179
   6.5418        154
   6.5604        159
   6.5789        167
   6.5975        196
   6.6161        188
   6.6347        147
   6.6532        182
   6.6718        161
   6.6904        181
   6.7090        171
   6.7275        151
   6.7461        188
   6.7647        183
   6.7833        177
   6.8018        214
   6.8204        191
   6.8390        174
   6.8576        154
   6.8761        173
   6.8947        170
   6.9133        170
   6.9319        158
   6.9504        157
   6.9690        170
   6.9876        170
   7.0062        177
   7.0247        149
   7.0433        166
   7.0619        142
   7.0805        156
   7.0990        172
   7.1176        166
   7.1362        150
   7.1548        181
   7.1733        141
   7.1919        155
   7.2105        152
   7.2291        161
   7.2476        161
   7.2662        187
   7.2848        173
   7.3034        187
   7.3220        160
   7.3405        167
   7.3591        184
   7.3777        168
   7.3963        167
   7.4148        156
   7.4334        166
   7.4520        187
   7.4706        162
   7.4891        160
   7.5077        151
   7.5263        172
   7.5449        186
   7.5634        167
   7.5820        170
   7.6006        170
   7.6192        200
   7.6377        191
   7.6563        180
   7.6749        175
   7.6935        172
   7.7120        158
   7.7306        155
   7.7492        192
   7.7678        198
   7.7863        180
   7.8049        204
   7.8235        191
   7.8421        179
   7.8606        181
   7.8792        184
   7.8978        185
   7.9164        202
   7.9349        181
   7.9535        176
   7.9721        187
   7.9907        182
   8.0092        188
   8.0278        200
   8.0464        174
   8.0650        182
   8.0835        181
   8.1021        190
   8.1207        162
   8.1393        194
   8.1579        177
   8.1764        198
   8.1950        207
   8.2136        187
   8.2322        181
   8.2507        209
   8.2693        190
   8.2879        200
   8.3065        204
   8.3250        171
   8.3436        217
   8.3622        183
   8.3808        205
   8.3993        173
   8.4179        179
   8.4365        189
   8.4551        196
   8.4736        207
   8.4922        218
   8.5108        217
   8.5294        223
   8.5479        227
   8.5665        206
   8.5851        201
   8.6037        169
   8.6222        175
   8.6408        170
   8.6594        204
   8.6780        196
   8.6965        211
   8.7151        203
   8.7337        180
   8.7523        205
   8.7708        190
   8.7894        213
   8.8080        224
   8.8266        199
   8.8451        194
   8.8637        203
   8.8823        208
   8.9009        196
   8.9195        219
   8.9380        213
   8.9566        203
   8.9752        209
   8.9938        204
   9.0123        217
   9.0309        211
   9.0495        234
   9.0681        225
   9.0866        226
   9.1052        224
   9.1238        207
   9.1424        216
   9.1609        226
   9.1795        204
   9.1981        237
   9.2167        207
   9.2352        242
   9.2538        227
   9.2724        245
   9.2910        230
   9.3095        229
   9.3281        224
   9.3467        234
   9.3653        189
   9.3838        186
   9.4024        231
   9.4210        214
   9.4396        221
   9.4581        222
   9.4767        217
   9.4953        235
   9.5139        223
   9.5324        213
   9.5510        221
   9.5696        199
   9.5882        215
   9.6067        192
   9.6253        227
   9.6439        221
   9.6625        207
   9.6811        232
   9.6996        216
   9.7182        203
   9.7368        260
   9.7554        231
   9.7739        197
   9.7925        251
   9.8111        256
   9.8297        223
   9.8482        248
   9.8668        264
   9.8854        238
   9.9040        233
   9.9225        237
   9.9411        234
   9.9597        257
   9.9783        257
   9.9968        251
  10.0154        230
  10.0340        250
  10.0526        219
  10.0711        247
  10.0897        244
  10.1083        236
  10.1269        238
  10.1454        266
  10.1640        216
  10.1826        236
  10.2012        225
  10.2197        244
  10.2383        259
  10.2569        257
  10.2755        238
  10.2940        263
  10.3126        272
  10.3312        265
  10.3498        261
  10.3683        222
  10.3869        257
  10.4055        209
  10.4241        240
  10.4427        243
  10.4612        235
  10.4798        224
  10.4984        248
  10.5170        228
  10.5355        208
  10.5541        251
  10.5727        249
  10.5913        236
  10.6098        262
  10.6284        266
  10.6470        251
  10.6656        237
  10.6841        264
  10.7027        248
  10.7213        217
  10.7399        264
  10.7584        248
  10.7770        250
  10.7956        241
  10.8142        238
  10.8327        235
  10.8513        245
  10.8699        232
  10.8885        252
  10.9070        240
  10.9256        226
  10.9442        224
  10.9628        264
  10.9813        261
  10.9999        251
  11.0185        240
  11.0371        230
  11.0556        248
  11.0742        252
  11.0928        255
  11.1114        238
  11.1299        278
  11.1485        228
  11.1671        225
  11.1857        233
  11.2043        234
  11.2228        236
  11.2414        210
  11.2600        261
  11.2786        212
  11.2971        250
  11.3157        243
  11.3343        250
  11.3529        236
  11.3714        236
  11.3900        232
  11.4086        241
  11.4272        241
  11.4457        235
  11.4643        223
  11.4829        238
  11.5015        239
  11.5200        243
  11.5386        233
  11.5572        241
  11.5758        269
  11.5943        268
  11.6129        258
  11.6315        234
  11.6501        207
  11.6686        227
  11.6872        220
  11.7058        213
  11.7244        219
  11.7429        244
  11.7615        246
  11.7801        222
  11.7987        251
  11.8172        242
  11.8358        218
  11.8544        212
  11.8730        261
  11.8915        215
  11.9101        227
  11.9287        222
  11.9473        233
  11.9659        250
  11.9844        230
  12.0030        257
  12.0216        203
  12.0402        205
  12.0587        244
  12.0773        246
  12.0959        230
  12.1145        215
  12.1330        251
  12.1516        227
  12.1702        208
  12.1888        228
  12.2073        232
  12.2259        232
  12.2445        238
  12.2631        231
  12.2816        223
  12.3002        201
  12.3188        228
  12.3374        265
  12.3559        221
  12.3745        195
  12.3931        200
  12.4117        226
  12.4302        254
  12.4488        203
  12.4674        234
  12.4860        219
  12.5045        202
  12.5231        222
  12.5417        235
  12.5603        228
  12.5788        225
  12.5974        220
  12.6160        223
  12.6346        237
  12.6531        235
  12.6717        202
  12.6903        190
  12.7089        215
  12.7274        246
  12.7460        199
  12.7646        227
  12.7832        218
  12.8018        216
  12.8203        215
  12.8389        220
  12.8575        238
  12.8761        202
  12.8946        205
  12.9132        246
  12.9318        204
  12.9504        214
  12.9689        217
  12.9875        201
  13.0061        188
  13.0247        202
  13.0432        220
  13.0618        192
  13.0804        200
  13.0990        187
  13.1175        236
  13.1361        206
  13.1547        201
  13.1733        223
  13.1918        200
  13.2104        200
  13.2290        211
  13.2476        194
  13.2661        190
  13.2847        209
  13.3033        194
  13.3219        211
  13.3404        189
  13.3590        200
  13.3776        212
  13.3962        203
  13.4147        180
  13.4333        178
  13.4519        198
  13.4705        205
  13.4890        182
  13.5076        186
  13.5262        190
  13.5448        194
  13.5634        195
  13.5819        172
  13.6005        222
  13.6191        191
  13.6377        224
  13.6562        200
  13.6748        209
  13.6934        172
  13.7120        187
  13.7305        186
  13.7491        184
  13.7677        201
  13.7863        199
  13.8048        201
  13.8234        212
  13.8420        176
  13.8606        195
  13.8791        193
  13.8977        203
  13.9163        202
  13.9349        200
  13.9534        210
  13.9720        170
  13.9906        169
  14.0092        170
  14.0277        179
  14.0463        152
  14.0649        212
  14.0835        164
  14.1020        180
  14.1206        183
  14.1392        176
  14.1578        157
  14.1763        164
  14.1949        187
  14.2135        178
  14.2321        183
  14.2506        190
  14.2692        184
  14.2878        190
  14.3064        179
  14.3250        176
  14.3435        188
  14.3621        185
  14.3807        208
  14.3993        168
  14.4178        201
  14.4364        167
  14.4550        175
  14.4736        183
  14.4921        165
  14.5107        178
  14.5293        190
  14.5479        187
  14.5664        173
  14.5850        160
  14.6036        191
  14.6222        172
  14.6407        179
  14.6593        160
  14.6779        164
  14.6965        165
  14.7150        174
  14.7336        177
  14.7522        174
  14.7708        169
  14.7893        170
  14.8079        164
  14.8265        179
  14.8451        199
  14.8636        186
  14.8822        190
  14.9008        165
  14.9194        207
  14.9379        166
  14.9565        161
  14.9751        159
  14.9937        161
  15.0122        151
  15.0308        163
  15.0494        156
  15.0680        172
  15.0866        165
  15.1051        162
  15.1237        162
  15.1423        176
  15.1609        169
  15.1794        155
  15.1980        164
  15.2166        144
  15.2352        168
  15.2537        171
  15.2723        153
  15.2909        185
  15.3095        191
  15.3280        172
  15.3466        164
  15.3652        181
  15.3838        147
  15.4023        174
  15.4209        169
  15.4395        176
  15.4581        157
  15.4766        159
  15.4952        178
  15.5138        186
  15.5324        160
  15.5509        137
  15.5695        194
  15.5881        161
  15.6067        170
  15.6252        158
  15.6438        177
  15.6624        157
  15.6810        166
  15.6995        159
  15.7181        144
  15.7367        160
  15.7553        170
  15.7738        163
  15.7924        138
  15.8110        176
  15.8296        169
  15.8482        173
  15.8667        166
  15.8853        177
  15.9039        173
  15.9225        160
  15.9410        151
  15.9596        161
  15.9782        164
  15.9968        187
  16.0153        179
  16.0339        164
  16.0525        172
  16.0711        147
  16.0896        168
  16.1082        161
  16.1268        165
  16.1454        162
  16.1639        173
  16.1825        155
  16.2011        183
  16.2197        175
  16.2382        168
  16.2568        156
  16.2754        167
  16.2940        146
  16.3125        161
  16.3311        172
  16.3497        152
  16.3683        137
  16.3868        177
  16.4054        178
  16.4240        155
  16.4426        173
  16.4611        206
  16.4797        183
  16.4983        188
  16.5169        152
  16.5354        171
  16.5540        188
  16.5726        161
  16.5912        152
  16.6097        173
  16.6283        156
  16.6469        162
  16.6655        184
  16.6841        158
  16.7026        149
  16.7212        179
  16.7398        156
  16.7584        145
  16.7769        147
  16.7955        154
  16.8141        157
  16.8327        158
  16.8512        146
  16.8698        169
  16.8884        199
  16.9070        152
  16.9255        146
  16.9441        146
  16.9627        164
  16.9813        181
  16.9998        165
  17.0184        172
  17.0370        165
  17.0556        159
  17.0741        162
  17.0927        173
  17.1113        163
  17.1299        171
  17.1484        175
  17.1670        150
  17.1856        150
  17.2042        180
  17.2227        157
  17.2413        156
  17.2599        168
  17.2785        186
  17.2970        164
  17.3156        152
  17.3342        160
  17.3528        165
  17.3713        153
  17.3899        153
  17.4085        179
  17.4271        156
  17.4457        163
  17.4642        171
  17.4828        188
  17.5014        156
  17.5200        177
  17.5385        157
  17.5571        169
  17.5757        161
  17.5943        172
  17.6128        200
  17.6314        159
  17.6500        155
  17.6686        178
  17.6871        157
  17.7057        172
  17.7243        164
  17.7429        172
  17.7614        174
  17.7800        161
  17.7986        175
  17.8172        155
  17.8357        151
  17.8543        166
  17.8729        151
  17.8915        176
  17.9100        154
  17.9286        159
  17.9472        159
  17.9658        168
  17.9843        162
  18.0029        148
  18.0215        155
  18.0401        168
  18.0586        170
  18.0772        181
  18.0958        174
  18.1144        155
  18.1329        180
  18.1515        174
  18.1701        169
  18.1887        146
  18.2073        172
  18.2258        185
  18.2444        176
  18.2630        155
  18.2816        184
  18.3001        160
  18.3187        159
  18.3373        156
  18.3559        166
  18.3744        163
  18.3930        170
  18.4116        148
  18.4302        159
  18.4487        162
  18.4673        177
  18.4859        165
  18.5045        179
  18.5230        174
  18.5416        157
  18.5602        177
  18.5788        146
  18.5973        177
  18.6159        168
  18.6345        158
  18.6531        167
  18.6716        177
  18.6902        193
  18.7088        171
  18.7274        193
  18.7459        171
  18.7645        190
  18.7831        166
  18.8017        177
  18.8202        171
  18.8388        174
  18.8574        158
  18.8760        170
  18.8945        178
  18.9131        182
  18.9317        169
  18.9503        155
  18.9689        186
  18.9874        187
  19.0060        185
  19.0246        195
  19.0432        143
  19.0617        174
  19.0803        176
  19.0989        178
  19.1175        173
  19.1360        192
  19.1546        156
  19.1732        168
  19.1918        165
  19.2103        170
  19.2289        188
  19.2475        176
  19.2661        161
  19.2846        191
  19.3032        162
  19.3218        193
  19.3404        163
  19.3589        164
  19.3775        178
  19.3961        158
  19.4147        180
  19.4332        169
  19.4518        173
  19.4704        174
  19.4890        190
  19.5075        158
  19.5261        172
  19.5447        158
  19.5633        171
  19.5818        177
  19.6004        154
  19.6190        184
  19.6376        170
  19.6561        145
  19.6747        181
  19.6933        184
  19.7119        204
  19.7305        163
  19.7490        181
  19.7676        180
  19.7862        191
  19.8048        161
  19.8233        167
  19.8419        172
  19.8605        186
  19.8791        167
  19.8976        181
  19.9162        175
  19.9348        188
  19.9534        180
  19.9719        196
  19.9905        175
  20.0091        168
  20.0277        168
  20.0462        158
  20.0648        180
  20.0834        167
  20.1020        182
  20.1205        194
  20.1391        192
  20.1577        173
  20.1763        185
  20.1948        179
  20.2134        161
  20.2320        187
  20.2506        186
  20.2691        182
  20.2877        167
  20.3063        191
  20.3249        171
  20.3434        175
  20.3620        191
  20.3806        176
  20.3992        181
  20.4177        183
  20.4363        177
  20.4549        204
  20.4735        200
