; (content of file Y:\Sam\Apurva-07-20-2022\puck4\ML_20220718_53_SJD_4_LaB6-4min.raw)
_FILEVERSION = 3
_SAMPLE = ML_20220718_53_SJD_4_LaB6-4min
_+SAMPLE = 
_SITE = USA
_USER = Administrator
_GONIOMETER_CODE = 20
; Goniometer : D8 theta/2theta, stage : Unknown
_ATTACHMENTS_CODE = 0
_GONIOMETER_RADIUS = 200.5
_FIXED_DIVSLIT = 0.6
_FIXED_SAMPLESLIT = 0
_SOLLER_SLITS = 2
_FIXED_DETSLIT = 9.55
_MONOCHROMATOR = 0
; Incident beam monochromator : None
_SOLLER_SLITS_2 = N
_THIN_FILM = N
_BETA_FILTER = Y
_FIXED_ANTISLIT = 5.89
_ANALYZER_CODE = 0
; Received beam analyzer : None
_DATEMEASURED = "26-Jul-2022 14:14:13"
_WL_UNIT = A
_WL1 = 1.5406
_WL2 = 1.54439
_WL3 = 1.39222
_WLRATIO = 0.5
_ANODE = Cu
_V4_INF_CREATOR = XRDWizard
_V4_INF_CREATOR_VERSION = V2.9.0.22
_V4_INF_WIZARD_VERSION = V2.9.0.22
_V4_INF_WIZARD_ADDINS = V2.9.0.22
_V4_INF_WIZARD_DOCTYPE = XRD
_V4_INF_OSUSER = McQueenLab
_V4_INF_USER = Administrator
_V4_INF_SITE = USA
_V4_INF_SAMPLEID = ML_20220718_53_SJD_4_LaB6-4min

; Data for range 1
_DRIVE = COUPLED
_STEPTIME = 11.28
_STEPSIZE = 0.0185756
_STEPMODE = C
_START = 5
_THETA = 2.5
_2THETA = 5
_KHI = 0
_PHI = 0
_X = 0
_Y = 0
_Z = 0
_DETECTOR = 5
; Detector type : Unknown
_DETECTORSLIT = unkn
_AUX1 = 0
_AUX2 = 0
_AUX3 = 0
_TIMESTARTED = 15
_TEMP_RATE = -1
_TEMP_DELAY = -1
_KV = 40
_MA = 40
_RANGE_WL = 1.5406
_3DPLANE = 0
_V4_ADDITIONALDETECTOR = 257
_V4_PSD2THETA = 3.3902
_V4_PSDCHANNEL1 = 0
_V4_PSDAPERTURE = 12.68
_V4_PSDTYPE = 5
_V4_PSDFIXED = 0
_V4_COUNTERS_MASK = 4096
_V4_DRIVES_MASK = 0
_V4_ENCODERS_MASK = 0
_2THETACOUNTS = 1
; 2THETA  PSD
   5.0000        239
   5.0186        250
   5.0372        244
   5.0557        267
   5.0743        277
   5.0929        247
   5.1115        233
   5.1300        270
   5.1486        266
   5.1672        241
   5.1858        246
   5.2043        238
   5.2229        217
   5.2415        233
   5.2601        241
   5.2786        266
   5.2972        239
   5.3158        242
   5.3344        250
   5.3529        228
   5.3715        230
   5.3901        247
   5.4087        242
   5.4272        232
   5.4458        232
   5.4644        216
   5.4830        213
   5.5015        234
   5.5201        235
   5.5387        221
   5.5573        200
   5.5758        210
   5.5944        240
   5.6130        243
   5.6316        209
   5.6501        235
   5.6687        214
   5.6873        222
   5.7059        213
   5.7244        194
   5.7430        215
   5.7616        187
   5.7802        214
   5.7988        203
   5.8173        196
   5.8359        186
   5.8545        202
   5.8731        178
   5.8916        188
   5.9102        230
   5.9288        196
   5.9474        204
   5.9659        201
   5.9845        186
   6.0031        209
   6.0217        212
   6.0402        193
   6.0588        189
   6.0774        171
   6.0960        215
   6.1145        202
   6.1331        218
   6.1517        225
   6.1703        208
   6.1888        199
   6.2074        190
   6.2260        177
   6.2446        186
   6.2631        194
   6.2817        163
   6.3003        172
   6.3189        188
   6.3374        180
   6.3560        180
   6.3746        197
   6.3932        184
   6.4117        175
   6.4303        177
   6.4489        174
   6.4675        174
   6.4860        177
   6.5046        152
   6.5232        184
   6.5418        192
   6.5604        168
   6.5789        171
   6.5975        194
   6.6161        167
   6.6347        172
   6.6532        149
   6.6718        186
   6.6904        190
   6.7090        176
   6.7275        178
   6.7461        186
   6.7647        157
   6.7833        165
   6.8018        164
   6.8204        150
   6.8390        179
   6.8576        175
   6.8761        178
   6.8947        166
   6.9133        165
   6.9319        161
   6.9504        196
   6.9690        181
   6.9876        157
   7.0062        144
   7.0247        163
   7.0433        162
   7.0619        164
   7.0805        161
   7.0990        179
   7.1176        125
   7.1362        157
   7.1548        134
   7.1733        171
   7.1919        165
   7.2105        147
   7.2291        170
   7.2476        147
   7.2662        161
   7.2848        179
   7.3034        171
   7.3220        186
   7.3405        155
   7.3591        152
   7.3777        155
   7.3963        170
   7.4148        165
   7.4334        141
   7.4520        151
   7.4706        157
   7.4891        182
   7.5077        147
   7.5263        182
   7.5449        167
   7.5634        173
   7.5820        158
   7.6006        142
   7.6192        153
   7.6377        171
   7.6563        183
   7.6749        173
   7.6935        166
   7.7120        170
   7.7306        194
   7.7492        188
   7.7678        193
   7.7863        185
   7.8049        183
   7.8235        187
   7.8421        142
   7.8606        203
   7.8792        169
   7.8978        176
   7.9164        186
   7.9349        175
   7.9535        207
   7.9721        196
   7.9907        189
   8.0092        186
   8.0278        180
   8.0464        189
   8.0650        194
   8.0835        171
   8.1021        166
   8.1207        162
   8.1393        189
   8.1579        182
   8.1764        201
   8.1950        188
   8.2136        180
   8.2322        196
   8.2507        195
   8.2693        207
   8.2879        202
   8.3065        184
   8.3250        198
   8.3436        211
   8.3622        175
   8.3808        206
   8.3993        195
   8.4179        194
   8.4365        200
   8.4551        195
   8.4736        186
   8.4922        187
   8.5108        187
   8.5294        205
   8.5479        199
   8.5665        226
   8.5851        207
   8.6037        215
   8.6222        193
   8.6408        207
   8.6594        223
   8.6780        204
   8.6965        182
   8.7151        229
   8.7337        197
   8.7523        202
   8.7708        220
   8.7894        205
   8.8080        204
   8.8266        203
   8.8451        217
   8.8637        203
   8.8823        179
   8.9009        237
   8.9195        205
   8.9380        208
   8.9566        198
   8.9752        211
   8.9938        206
   9.0123        221
   9.0309        209
   9.0495        226
   9.0681        209
   9.0866        253
   9.1052        208
   9.1238        224
   9.1424        193
   9.1609        230
   9.1795        248
   9.1981        209
   9.2167        226
   9.2352        213
   9.2538        212
   9.2724        205
   9.2910        240
   9.3095        210
   9.3281        206
   9.3467        236
   9.3653        220
   9.3838        211
   9.4024        211
   9.4210        207
   9.4396        256
   9.4581        208
   9.4767        217
   9.4953        225
   9.5139        206
   9.5324        222
   9.5510        187
   9.5696        205
   9.5882        204
   9.6067        220
   9.6253        220
   9.6439        227
   9.6625        221
   9.6811        220
   9.6996        244
   9.7182        235
   9.7368        221
   9.7554        222
   9.7739        210
   9.7925        224
   9.8111        242
   9.8297        222
   9.8482        241
   9.8668        250
   9.8854        230
   9.9040        215
   9.9225        263
   9.9411        239
   9.9597        215
   9.9783        220
   9.9968        230
  10.0154        236
  10.0340        250
  10.0526        239
  10.0711        221
  10.0897        270
  10.1083        233
  10.1269        251
  10.1454        236
  10.1640        237
  10.1826        195
  10.2012        245
  10.2197        239
  10.2383        244
  10.2569        254
  10.2755        254
  10.2940        222
  10.3126        238
  10.3312        203
  10.3498        228
  10.3683        238
  10.3869        265
  10.4055        256
  10.4241        210
  10.4427        198
  10.4612        246
  10.4798        268
  10.4984        245
  10.5170        250
  10.5355        221
  10.5541        230
  10.5727        258
  10.5913        249
  10.6098        267
  10.6284        262
  10.6470        245
  10.6656        245
  10.6841        245
  10.7027        218
  10.7213        244
  10.7399        260
  10.7584        233
  10.7770        239
  10.7956        240
  10.8142        234
  10.8327        235
  10.8513        216
  10.8699        223
  10.8885        236
  10.9070        243
  10.9256        226
  10.9442        234
  10.9628        256
  10.9813        262
  10.9999        263
  11.0185        255
  11.0371        254
  11.0556        228
  11.0742        230
  11.0928        228
  11.1114        224
  11.1299        236
  11.1485        226
  11.1671        248
  11.1857        253
  11.2043        217
  11.2228        263
  11.2414        264
  11.2600        266
  11.2786        232
  11.2971        235
  11.3157        229
  11.3343        241
  11.3529        245
  11.3714        216
  11.3900        247
  11.4086        248
  11.4272        245
  11.4457        251
  11.4643        229
  11.4829        248
  11.5015        235
  11.5200        265
  11.5386        231
  11.5572        234
  11.5758        240
  11.5943        233
  11.6129        240
  11.6315        231
  11.6501        258
  11.6686        208
  11.6872        227
  11.7058        227
  11.7244        226
  11.7429        232
  11.7615        239
  11.7801        216
  11.7987        220
  11.8172        258
  11.8358        242
  11.8544        210
  11.8730        247
  11.8915        234
  11.9101        248
  11.9287        226
  11.9473        223
  11.9659        208
  11.9844        236
  12.0030        231
  12.0216        232
  12.0402        219
  12.0587        206
  12.0773        211
  12.0959        235
  12.1145        214
  12.1330        216
  12.1516        229
  12.1702        213
  12.1888        213
  12.2073        195
  12.2259        231
  12.2445        223
  12.2631        225
  12.2816        240
  12.3002        216
  12.3188        222
  12.3374        223
  12.3559        214
  12.3745        217
  12.3931        212
  12.4117        203
  12.4302        202
  12.4488        234
  12.4674        223
  12.4860        219
  12.5045        220
  12.5231        221
  12.5417        250
  12.5603        215
  12.5788        227
  12.5974        199
  12.6160        219
  12.6346        210
  12.6531        195
  12.6717        215
  12.6903        188
  12.7089        224
  12.7274        215
  12.7460        225
  12.7646        227
  12.7832        200
  12.8018        226
  12.8203        194
  12.8389        191
  12.8575        225
  12.8761        196
  12.8946        191
  12.9132        220
  12.9318        227
  12.9504        183
  12.9689        205
  12.9875        222
  13.0061        184
  13.0247        202
  13.0432        201
  13.0618        195
  13.0804        212
  13.0990        203
  13.1175        193
  13.1361        196
  13.1547        191
  13.1733        200
  13.1918        206
  13.2104        224
  13.2290        185
  13.2476        202
  13.2661        209
  13.2847        214
  13.3033        194
  13.3219        201
  13.3404        183
  13.3590        238
  13.3776        207
  13.3962        183
  13.4147        207
  13.4333        199
  13.4519        200
  13.4705        217
  13.4890        187
  13.5076        220
  13.5262        206
  13.5448        218
  13.5634        189
  13.5819        171
  13.6005        198
  13.6191        191
  13.6377        212
  13.6562        174
  13.6748        173
  13.6934        199
  13.7120        202
  13.7305        196
  13.7491        183
  13.7677        190
  13.7863        174
  13.8048        199
  13.8234        173
  13.8420        198
  13.8606        189
  13.8791        162
  13.8977        174
  13.9163        183
  13.9349        181
  13.9534        181
  13.9720        204
  13.9906        194
  14.0092        162
  14.0277        207
  14.0463        207
  14.0649        182
  14.0835        167
  14.1020        182
  14.1206        218
  14.1392        190
  14.1578        193
  14.1763        179
  14.1949        197
  14.2135        197
  14.2321        201
  14.2506        197
  14.2692        184
  14.2878        186
  14.3064        193
  14.3250        155
  14.3435        182
  14.3621        178
  14.3807        186
  14.3993        185
  14.4178        187
  14.4364        172
  14.4550        190
  14.4736        186
  14.4921        165
  14.5107        161
  14.5293        198
  14.5479        165
  14.5664        173
  14.5850        168
  14.6036        163
  14.6222        175
  14.6407        182
  14.6593        185
  14.6779        171
  14.6965        196
  14.7150        172
  14.7336        174
  14.7522        176
  14.7708        156
  14.7893        175
  14.8079        182
  14.8265        165
  14.8451        138
  14.8636        177
  14.8822        157
  14.9008        178
  14.9194        166
  14.9379        153
  14.9565        176
  14.9751        170
  14.9937        174
  15.0122        172
  15.0308        156
  15.0494        170
  15.0680        180
  15.0866        173
  15.1051        168
  15.1237        156
  15.1423        165
  15.1609        163
  15.1794        175
  15.1980        149
  15.2166        177
  15.2352        169
  15.2537        193
  15.2723        163
  15.2909        164
  15.3095        163
  15.3280        175
  15.3466        183
  15.3652        140
  15.3838        151
  15.4023        174
  15.4209        161
  15.4395        157
  15.4581        176
  15.4766        171
  15.4952        159
  15.5138        153
  15.5324        174
  15.5509        160
  15.5695        182
  15.5881        179
  15.6067        165
  15.6252        153
  15.6438        155
  15.6624        147
  15.6810        174
  15.6995        183
  15.7181        177
  15.7367        154
  15.7553        159
  15.7738        151
  15.7924        182
  15.8110        150
  15.8296        144
  15.8482        187
  15.8667        170
  15.8853        152
  15.9039        144
  15.9225        158
  15.9410        156
  15.9596        160
  15.9782        172
  15.9968        160
  16.0153        158
  16.0339        187
  16.0525        162
  16.0711        178
  16.0896        159
  16.1082        138
  16.1268        154
  16.1454        172
  16.1639        170
  16.1825        141
  16.2011        150
  16.2197        171
  16.2382        168
  16.2568        176
  16.2754        163
  16.2940        159
  16.3125        156
  16.3311        150
  16.3497        137
  16.3683        173
  16.3868        173
  16.4054        161
  16.4240        171
  16.4426        149
  16.4611        156
  16.4797        169
  16.4983        161
  16.5169        158
  16.5354        168
  16.5540        155
  16.5726        165
  16.5912        168
  16.6097        161
  16.6283        175
  16.6469        166
  16.6655        158
  16.6841        155
  16.7026        155
  16.7212        171
  16.7398        144
  16.7584        167
  16.7769        146
  16.7955        179
  16.8141        137
  16.8327        143
  16.8512        165
  16.8698        174
  16.8884        163
  16.9070        170
  16.9255        177
  16.9441        161
  16.9627        164
  16.9813        162
  16.9998        171
  17.0184        186
  17.0370        173
  17.0556        153
  17.0741        165
  17.0927        162
  17.1113        148
  17.1299        171
  17.1484        153
  17.1670        179
  17.1856        161
  17.2042        187
  17.2227        148
  17.2413        182
  17.2599        142
  17.2785        167
  17.2970        128
  17.3156        167
  17.3342        154
  17.3528        149
  17.3713        141
  17.3899        138
  17.4085        159
  17.4271        160
  17.4457        151
  17.4642        149
  17.4828        164
  17.5014        155
  17.5200        170
  17.5385        162
  17.5571        158
  17.5757        162
  17.5943        160
  17.6128        163
  17.6314        165
  17.6500        188
  17.6686        163
  17.6871        140
  17.7057        151
  17.7243        184
  17.7429        160
  17.7614        159
  17.7800        155
  17.7986        134
  17.8172        174
  17.8357        183
  17.8543        167
  17.8729        141
  17.8915        171
  17.9100        159
  17.9286        178
  17.9472        154
  17.9658        157
  17.9843        180
  18.0029        163
  18.0215        177
  18.0401        156
  18.0586        163
  18.0772        137
  18.0958        174
  18.1144        181
  18.1329        158
  18.1515        167
  18.1701        142
  18.1887        181
  18.2073        158
  18.2258        187
  18.2444        160
  18.2630        161
  18.2816        156
  18.3001        155
  18.3187        176
  18.3373        150
  18.3559        134
  18.3744        165
  18.3930        176
  18.4116        184
  18.4302        164
  18.4487        164
  18.4673        160
  18.4859        149
  18.5045        167
  18.5230        159
  18.5416        169
  18.5602        146
  18.5788        147
  18.5973        155
  18.6159        141
  18.6345        163
  18.6531        166
  18.6716        179
  18.6902        162
  18.7088        162
  18.7274        156
  18.7459        166
  18.7645        177
  18.7831        160
  18.8017        166
  18.8202        163
  18.8388        170
  18.8574        152
  18.8760        149
  18.8945        169
  18.9131        160
  18.9317        159
  18.9503        169
  18.9689        166
  18.9874        137
  19.0060        176
  19.0246        161
  19.0432        198
  19.0617        153
  19.0803        164
  19.0989        161
  19.1175        163
  19.1360        183
  19.1546        160
  19.1732        156
  19.1918        163
  19.2103        184
  19.2289        185
  19.2475        177
  19.2661        166
  19.2846        163
  19.3032        182
  19.3218        162
  19.3404        182
  19.3589        173
  19.3775        167
  19.3961        193
  19.4147        167
  19.4332        178
  19.4518        196
  19.4704        166
  19.4890        170
  19.5075        174
  19.5261        188
  19.5447        162
  19.5633        181
  19.5818        180
  19.6004        184
  19.6190        166
  19.6376        169
  19.6561        175
  19.6747        147
  19.6933        154
  19.7119        162
  19.7305        173
  19.7490        180
  19.7676        189
  19.7862        160
  19.8048        157
  19.8233        183
  19.8419        175
  19.8605        179
  19.8791        176
  19.8976        186
  19.9162        164
  19.9348        160
  19.9534        178
  19.9719        212
  19.9905        166
  20.0091        175
  20.0277        191
  20.0462        187
  20.0648        176
  20.0834        194
  20.1020        185
  20.1205        167
  20.1391        178
  20.1577        182
  20.1763        194
  20.1948        169
  20.2134        172
  20.2320        182
  20.2506        183
  20.2691        183
  20.2877        187
  20.3063        199
  20.3249        182
  20.3434        159
  20.3620        179
  20.3806        178
  20.3992        162
  20.4177        169
  20.4363        209
  20.4549        202
  20.4735        192
