; (content of file Y:\Sam\Apurva-07-20-2022\puck2\ML_20220720_11_SJD_0_LaB6-1min.raw)
_FILEVERSION = 3
_SAMPLE = ML_20220720_11_SJD_0_LaB6-1mi
_+SAMPLE = 
_SITE = USA
_USER = Administrator
_GONIOMETER_CODE = 20
; Goniometer : D8 theta/2theta, stage : Unknown
_ATTACHMENTS_CODE = 0
_GONIOMETER_RADIUS = 200.5
_FIXED_DIVSLIT = 0.6
_FIXED_SAMPLESLIT = 0
_SOLLER_SLITS = 2
_FIXED_DETSLIT = 9.55
_MONOCHROMATOR = 0
; Incident beam monochromator : None
_SOLLER_SLITS_2 = N
_THIN_FILM = N
_BETA_FILTER = Y
_FIXED_ANTISLIT = 5.89
_ANALYZER_CODE = 0
; Received beam analyzer : None
_DATEMEASURED = "25-Jul-2022 18:06:49"
_WL_UNIT = A
_WL1 = 1.5406
_WL2 = 1.54439
_WL3 = 1.39222
_WLRATIO = 0.5
_ANODE = Cu
_V4_INF_CREATOR = XRDWizard
_V4_INF_CREATOR_VERSION = V2.9.0.22
_V4_INF_WIZARD_VERSION = V2.9.0.22
_V4_INF_WIZARD_ADDINS = V2.9.0.22
_V4_INF_WIZARD_DOCTYPE = XRD
_V4_INF_OSUSER = McQueenLab
_V4_INF_USER = Administrator
_V4_INF_SITE = USA
_V4_INF_SAMPLEID = ML_20220720_11_SJD_0_LaB6-1mi

; Data for range 1
_DRIVE = COUPLED
_STEPTIME = 4.23
_STEPSIZE = 0.0185756
_STEPMODE = C
_START = 5
_THETA = 2.5
_2THETA = 5
_KHI = 0
_PHI = 0
_X = 0
_Y = 0
_Z = 0
_DETECTOR = 5
; Detector type : Unknown
_DETECTORSLIT = unkn
_AUX1 = 0
_AUX2 = 0
_AUX3 = 0
_TIMESTARTED = 15
_TEMP_RATE = -1
_TEMP_DELAY = -1
_KV = 40
_MA = 40
_RANGE_WL = 1.5406
_3DPLANE = 0
_V4_ADDITIONALDETECTOR = 257
_V4_PSD2THETA = 3.3706
_V4_PSDCHANNEL1 = 0
_V4_PSDAPERTURE = 12.68
_V4_PSDTYPE = 5
_V4_PSDFIXED = 0
_V4_COUNTERS_MASK = 4096
_V4_DRIVES_MASK = 0
_V4_ENCODERS_MASK = 0
_2THETACOUNTS = 1
; 2THETA  PSD
   5.0000         93
   5.0186         88
   5.0372         95
   5.0557        101
   5.0743         82
   5.0929         98
   5.1115        103
   5.1300         89
   5.1486         91
   5.1672         87
   5.1858         90
   5.2043         75
   5.2229         94
   5.2415         73
   5.2601         90
   5.2786         81
   5.2972         92
   5.3158         75
   5.3344        106
   5.3529         77
   5.3715         69
   5.3901         75
   5.4087         86
   5.4272         89
   5.4458        100
   5.4644         82
   5.4830         83
   5.5015         88
   5.5201         75
   5.5387         83
   5.5573         55
   5.5758         78
   5.5944         85
   5.6130         84
   5.6316         76
   5.6501         77
   5.6687         54
   5.6873         76
   5.7059         83
   5.7244         65
   5.7430         78
   5.7616         83
   5.7802         87
   5.7988         85
   5.8173         70
   5.8359         72
   5.8545         77
   5.8731         65
   5.8916         72
   5.9102         74
   5.9288         58
   5.9474         61
   5.9659         66
   5.9845         64
   6.0031         83
   6.0217         67
   6.0402         81
   6.0588         68
   6.0774         72
   6.0960         65
   6.1145         69
   6.1331         71
   6.1517         69
   6.1703         77
   6.1888         60
   6.2074         75
   6.2260         85
   6.2446         94
   6.2631         74
   6.2817         70
   6.3003         83
   6.3189         77
   6.3374         77
   6.3560         49
   6.3746         58
   6.3932         56
   6.4117         78
   6.4303         65
   6.4489         64
   6.4675         74
   6.4860         59
   6.5046         78
   6.5232         71
   6.5418         60
   6.5604         64
   6.5789         74
   6.5975         72
   6.6161         73
   6.6347         58
   6.6532         65
   6.6718         44
   6.6904         56
   6.7090         70
   6.7275         53
   6.7461         74
   6.7647         67
   6.7833         63
   6.8018         52
   6.8204         49
   6.8390         69
   6.8576         58
   6.8761         68
   6.8947         56
   6.9133         72
   6.9319         55
   6.9504         65
   6.9690         69
   6.9876         71
   7.0062         66
   7.0247         61
   7.0433         48
   7.0619         60
   7.0805         60
   7.0990         53
   7.1176         64
   7.1362         63
   7.1548         60
   7.1733         63
   7.1919         63
   7.2105         57
   7.2291         58
   7.2476         53
   7.2662         70
   7.2848         56
   7.3034         50
   7.3220         61
   7.3405         47
   7.3591         46
   7.3777         58
   7.3963         52
   7.4148         51
   7.4334         64
   7.4520         56
   7.4706         65
   7.4891         57
   7.5077         57
   7.5263         72
   7.5449         55
   7.5634         63
   7.5820         65
   7.6006         65
   7.6192         76
   7.6377         67
   7.6563         45
   7.6749         62
   7.6935         84
   7.7120         60
   7.7306         67
   7.7492         67
   7.7678         66
   7.7863         51
   7.8049         60
   7.8235         65
   7.8421         61
   7.8606         71
   7.8792         61
   7.8978         62
   7.9164         55
   7.9349         59
   7.9535         73
   7.9721         68
   7.9907         66
   8.0092         62
   8.0278         57
   8.0464         70
   8.0650         67
   8.0835         63
   8.1021         71
   8.1207         75
   8.1393         84
   8.1579         83
   8.1764         88
   8.1950         69
   8.2136         71
   8.2322         77
   8.2507         68
   8.2693         61
   8.2879         79
   8.3065         77
   8.3250         61
   8.3436         58
   8.3622         71
   8.3808         61
   8.3993         86
   8.4179         54
   8.4365         75
   8.4551         80
   8.4736         78
   8.4922         85
   8.5108         60
   8.5294         74
   8.5479         74
   8.5665         73
   8.5851         68
   8.6037         63
   8.6222         82
   8.6408         78
   8.6594         70
   8.6780         68
   8.6965         83
   8.7151         73
   8.7337         89
   8.7523         78
   8.7708         76
   8.7894         80
   8.8080         76
   8.8266         75
   8.8451         84
   8.8637         73
   8.8823         83
   8.9009         71
   8.9195         78
   8.9380         69
   8.9566         76
   8.9752         72
   8.9938         87
   9.0123         77
   9.0309         82
   9.0495         72
   9.0681         76
   9.0866         85
   9.1052         89
   9.1238         83
   9.1424         74
   9.1609         68
   9.1795         87
   9.1981         84
   9.2167         71
   9.2352         77
   9.2538         93
   9.2724         70
   9.2910         82
   9.3095         76
   9.3281         72
   9.3467         83
   9.3653         74
   9.3838         72
   9.4024         70
   9.4210         77
   9.4396         79
   9.4581         66
   9.4767         90
   9.4953         84
   9.5139         86
   9.5324         76
   9.5510         77
   9.5696         92
   9.5882         72
   9.6067         78
   9.6253         77
   9.6439         72
   9.6625         80
   9.6811         84
   9.6996         72
   9.7182         80
   9.7368         90
   9.7554         85
   9.7739         86
   9.7925         76
   9.8111         81
   9.8297         81
   9.8482         93
   9.8668        106
   9.8854         67
   9.9040         98
   9.9225         82
   9.9411         86
   9.9597         75
   9.9783         77
   9.9968        103
  10.0154         90
  10.0340         83
  10.0526         90
  10.0711         90
  10.0897         70
  10.1083         94
  10.1269         86
  10.1454         79
  10.1640         79
  10.1826         88
  10.2012         88
  10.2197         91
  10.2383         82
  10.2569         84
  10.2755         82
  10.2940         90
  10.3126         80
  10.3312         84
  10.3498        101
  10.3683         91
  10.3869         80
  10.4055         91
  10.4241         93
  10.4427         88
  10.4612         93
  10.4798         81
  10.4984         96
  10.5170         83
  10.5355         80
  10.5541        108
  10.5727         88
  10.5913         92
  10.6098         91
  10.6284         89
  10.6470         87
  10.6656        101
  10.6841        102
  10.7027         84
  10.7213         88
  10.7399         91
  10.7584         81
  10.7770         66
  10.7956         89
  10.8142         89
  10.8327        112
  10.8513         89
  10.8699         98
  10.8885         92
  10.9070         95
  10.9256         95
  10.9442         95
  10.9628         85
  10.9813         88
  10.9999         94
  11.0185         84
  11.0371         83
  11.0556         95
  11.0742        102
  11.0928         79
  11.1114         83
  11.1299         82
  11.1485        100
  11.1671        100
  11.1857         89
  11.2043         85
  11.2228         82
  11.2414         92
  11.2600         95
  11.2786         90
  11.2971         95
  11.3157         83
  11.3343         81
  11.3529         99
  11.3714         93
  11.3900         96
  11.4086         71
  11.4272         91
  11.4457         92
  11.4643        105
  11.4829         79
  11.5015         79
  11.5200         83
  11.5386         93
  11.5572         96
  11.5758         91
  11.5943         79
  11.6129         85
  11.6315         81
  11.6501        103
  11.6686         97
  11.6872         86
  11.7058         91
  11.7244         87
  11.7429         96
  11.7615         85
  11.7801         80
  11.7987         73
  11.8172         79
  11.8358         74
  11.8544         90
  11.8730        104
  11.8915         98
  11.9101         73
  11.9287         85
  11.9473         76
  11.9659         75
  11.9844         93
  12.0030        111
  12.0216         76
  12.0402         92
  12.0587         83
  12.0773         84
  12.0959         89
  12.1145         82
  12.1330         69
  12.1516         72
  12.1702         90
  12.1888         99
  12.2073         85
  12.2259         69
  12.2445         65
  12.2631         94
  12.2816         79
  12.3002         87
  12.3188         76
  12.3374         85
  12.3559         71
  12.3745         79
  12.3931         80
  12.4117         84
  12.4302         83
  12.4488         66
  12.4674         90
  12.4860         85
  12.5045         79
  12.5231         88
  12.5417         81
  12.5603         75
  12.5788         96
  12.5974         78
  12.6160         76
  12.6346         64
  12.6531         79
  12.6717         96
  12.6903         86
  12.7089         81
  12.7274         64
  12.7460         79
  12.7646         83
  12.7832         77
  12.8018         63
  12.8203         68
  12.8389         82
  12.8575         78
  12.8761         68
  12.8946         69
  12.9132         76
  12.9318         76
  12.9504         81
  12.9689         78
  12.9875         68
  13.0061         75
  13.0247         83
  13.0432         79
  13.0618         87
  13.0804         72
  13.0990         77
  13.1175         74
  13.1361         73
  13.1547         78
  13.1733         80
  13.1918         76
  13.2104         74
  13.2290         66
  13.2476         80
  13.2661         71
  13.2847         70
  13.3033         71
  13.3219         81
  13.3404         74
  13.3590         72
  13.3776         75
  13.3962         67
  13.4147         68
  13.4333         63
  13.4519         77
  13.4705         69
  13.4890         61
  13.5076         85
  13.5262         64
  13.5448         77
  13.5634         61
  13.5819         71
  13.6005         70
  13.6191         68
  13.6377         68
  13.6562         56
  13.6748         64
  13.6934         73
  13.7120         64
  13.7305         58
  13.7491         59
  13.7677         70
  13.7863         84
  13.8048         72
  13.8234         69
  13.8420         65
  13.8606         91
  13.8791         66
  13.8977         69
  13.9163         78
  13.9349         71
  13.9534         74
  13.9720         67
  13.9906         62
  14.0092         55
  14.0277         51
  14.0463         66
  14.0649         73
  14.0835         79
  14.1020         66
  14.1206         63
  14.1392         75
  14.1578         83
  14.1763         85
  14.1949         62
  14.2135         69
  14.2321         55
  14.2506         64
  14.2692         71
  14.2878         76
  14.3064         66
  14.3250         67
  14.3435         64
  14.3621         53
  14.3807         52
  14.3993         52
  14.4178         70
  14.4364         66
  14.4550         50
  14.4736         63
  14.4921         63
  14.5107         55
  14.5293         55
  14.5479         68
  14.5664         59
  14.5850         57
  14.6036         63
  14.6222         73
  14.6407         63
  14.6593         70
  14.6779         58
  14.6965         47
  14.7150         60
  14.7336         67
  14.7522         60
  14.7708         58
  14.7893         65
  14.8079         68
  14.8265         70
  14.8451         90
  14.8636         76
  14.8822         60
  14.9008         60
  14.9194         67
  14.9379         52
  14.9565         50
  14.9751         49
  14.9937         53
  15.0122         65
  15.0308         60
  15.0494         54
  15.0680         62
  15.0866         63
  15.1051         45
  15.1237         52
  15.1423         58
  15.1609         49
  15.1794         54
  15.1980         57
  15.2166         49
  15.2352         64
  15.2537         43
  15.2723         57
  15.2909         55
  15.3095         53
  15.3280         61
  15.3466         54
  15.3652         52
  15.3838         70
  15.4023         56
  15.4209         56
  15.4395         73
  15.4581         53
  15.4766         63
  15.4952         53
  15.5138         59
  15.5324         70
  15.5509         69
  15.5695         57
  15.5881         64
  15.6067         56
  15.6252         61
  15.6438         63
  15.6624         62
  15.6810         62
  15.6995         50
  15.7181         70
  15.7367         67
  15.7553         62
  15.7738         48
  15.7924         69
  15.8110         51
  15.8296         56
  15.8482         60
  15.8667         65
  15.8853         85
  15.9039         58
  15.9225         65
  15.9410         58
  15.9596         68
  15.9782         55
  15.9968         61
  16.0153         59
  16.0339         66
  16.0525         53
  16.0711         55
  16.0896         67
  16.1082         64
  16.1268         39
  16.1454         71
  16.1639         57
  16.1825         59
  16.2011         64
  16.2197         58
  16.2382         57
  16.2568         62
  16.2754         56
  16.2940         58
  16.3125         50
  16.3311         64
  16.3497         47
  16.3683         59
  16.3868         62
  16.4054         63
  16.4240         58
  16.4426         68
  16.4611         74
  16.4797         55
  16.4983         57
  16.5169         71
  16.5354         54
  16.5540         55
  16.5726         74
  16.5912         51
  16.6097         65
  16.6283         71
  16.6469         63
  16.6655         69
  16.6841         47
  16.7026         65
  16.7212         65
  16.7398         52
  16.7584         61
  16.7769         55
  16.7955         53
  16.8141         48
  16.8327         57
  16.8512         67
  16.8698         57
  16.8884         70
  16.9070         51
  16.9255         56
  16.9441         51
  16.9627         53
  16.9813         48
  16.9998         45
  17.0184         59
  17.0370         51
  17.0556         53
  17.0741         58
  17.0927         69
  17.1113         58
  17.1299         54
  17.1484         68
  17.1670         62
  17.1856         47
  17.2042         54
  17.2227         49
  17.2413         69
  17.2599         68
  17.2785         51
  17.2970         53
  17.3156         36
  17.3342         52
  17.3528         60
  17.3713         42
  17.3899         55
  17.4085         57
  17.4271         51
  17.4457         57
  17.4642         40
  17.4828         49
  17.5014         47
  17.5200         55
  17.5385         65
  17.5571         46
  17.5757         63
  17.5943         70
  17.6128         66
  17.6314         52
  17.6500         64
  17.6686         55
  17.6871         67
  17.7057         61
  17.7243         54
  17.7429         78
  17.7614         55
  17.7800         49
  17.7986         71
  17.8172         65
  17.8357         60
  17.8543         53
  17.8729         50
  17.8915         53
  17.9100         58
  17.9286         61
  17.9472         61
  17.9658         54
  17.9843         64
  18.0029         59
  18.0215         64
  18.0401         59
  18.0586         56
  18.0772         52
  18.0958         57
  18.1144         49
  18.1329         50
  18.1515         36
  18.1701         51
  18.1887         65
  18.2073         63
  18.2258         65
  18.2444         51
  18.2630         69
  18.2816         46
  18.3001         45
  18.3187         73
  18.3373         72
  18.3559         65
  18.3744         67
  18.3930         68
  18.4116         54
  18.4302         54
  18.4487         60
  18.4673         64
  18.4859         75
  18.5045         61
  18.5230         60
  18.5416         62
  18.5602         65
  18.5788         71
  18.5973         61
  18.6159         60
  18.6345         55
  18.6531         72
  18.6716         65
  18.6902         56
  18.7088         64
  18.7274         67
  18.7459         76
  18.7645         73
  18.7831         74
  18.8017         56
  18.8202         54
  18.8388         63
  18.8574         61
  18.8760         65
  18.8945         76
  18.9131         56
  18.9317         79
  18.9503         57
  18.9689         58
  18.9874         65
  19.0060         70
  19.0246         65
  19.0432         63
  19.0617         65
  19.0803         59
  19.0989         80
  19.1175         77
  19.1360         59
  19.1546         55
  19.1732         65
  19.1918         54
  19.2103         41
  19.2289         66
  19.2475         65
  19.2661         60
  19.2846         59
  19.3032         60
  19.3218         65
  19.3404         64
  19.3589         71
  19.3775         69
  19.3961         70
  19.4147         50
  19.4332         77
  19.4518         95
  19.4704         76
  19.4890         60
  19.5075         62
  19.5261         60
  19.5447         58
  19.5633         81
  19.5818         58
  19.6004         63
  19.6190         60
  19.6376         52
  19.6561         64
  19.6747         70
  19.6933         72
  19.7119         68
  19.7305         68
  19.7490         67
  19.7676         78
  19.7862         69
  19.8048         70
  19.8233         65
  19.8419         59
  19.8605         62
  19.8791         67
  19.8976         87
  19.9162         79
  19.9348         75
  19.9534         59
  19.9719         60
  19.9905         70
  20.0091         67
  20.0277         67
  20.0462         59
  20.0648         53
  20.0834         56
  20.1020         62
  20.1205         73
  20.1391         71
  20.1577         53
  20.1763         63
  20.1948         63
  20.2134         78
  20.2320         65
  20.2506         66
  20.2691         58
  20.2877         63
  20.3063         80
  20.3249         68
  20.3434         84
  20.3620         64
  20.3806         70
  20.3992         60
  20.4177         78
  20.4363         66
  20.4549         59
  20.4735         78
