; (content of file Y:\Sam\Apurva-07-20-2022\puck1\ML_20220721_31_SJD_0_LaB6-4min.raw)
_FILEVERSION = 3
_SAMPLE = ML_20220721_31_SJD_0_LaB6-4min
_+SAMPLE = 
_SITE = USA
_USER = Administrator
_GONIOMETER_CODE = 20
; Goniometer : D8 theta/2theta, stage : Unknown
_ATTACHMENTS_CODE = 0
_GONIOMETER_RADIUS = 200.5
_FIXED_DIVSLIT = 0.6
_FIXED_SAMPLESLIT = 0
_SOLLER_SLITS = 2
_FIXED_DETSLIT = 9.55
_MONOCHROMATOR = 0
; Incident beam monochromator : None
_SOLLER_SLITS_2 = N
_THIN_FILM = N
_BETA_FILTER = Y
_FIXED_ANTISLIT = 5.89
_ANALYZER_CODE = 0
; Received beam analyzer : None
_DATEMEASURED = "25-Jul-2022 16:11:29"
_WL_UNIT = A
_WL1 = 1.5406
_WL2 = 1.54439
_WL3 = 1.39222
_WLRATIO = 0.5
_ANODE = Cu
_V4_INF_CREATOR = XRDWizard
_V4_INF_CREATOR_VERSION = V2.9.0.22
_V4_INF_WIZARD_VERSION = V2.9.0.22
_V4_INF_WIZARD_ADDINS = V2.9.0.22
_V4_INF_WIZARD_DOCTYPE = XRD
_V4_INF_OSUSER = McQueenLab
_V4_INF_USER = Administrator
_V4_INF_SITE = USA
_V4_INF_SAMPLEID = ML_20220721_31_SJD_0_LaB6-4min

; Data for range 1
_DRIVE = COUPLED
_STEPTIME = 11.28
_STEPSIZE = 0.0185756
_STEPMODE = C
_START = 5
_THETA = 2.5
_2THETA = 5
_KHI = 0
_PHI = 0
_X = 0
_Y = 0
_Z = 0
_DETECTOR = 5
; Detector type : Unknown
_DETECTORSLIT = unkn
_AUX1 = 0
_AUX2 = 0
_AUX3 = 0
_TIMESTARTED = 15
_TEMP_RATE = -1
_TEMP_DELAY = -1
_KV = 40
_MA = 40
_RANGE_WL = 1.5406
_3DPLANE = 0
_V4_ADDITIONALDETECTOR = 257
_V4_PSD2THETA = 3.365
_V4_PSDCHANNEL1 = 0
_V4_PSDAPERTURE = 12.68
_V4_PSDTYPE = 5
_V4_PSDFIXED = 0
_V4_COUNTERS_MASK = 4096
_V4_DRIVES_MASK = 0
_V4_ENCODERS_MASK = 0
_2THETACOUNTS = 1
; 2THETA  PSD
   5.0000        275
   5.0186        256
   5.0372        265
   5.0557        249
   5.0743        253
   5.0929        292
   5.1115        244
   5.1300        240
   5.1486        239
   5.1672        256
   5.1858        272
   5.2043        219
   5.2229        259
   5.2415        254
   5.2601        257
   5.2786        258
   5.2972        271
   5.3158        238
   5.3344        256
   5.3529        244
   5.3715        209
   5.3901        264
   5.4087        235
   5.4272        253
   5.4458        232
   5.4644        239
   5.4830        238
   5.5015        239
   5.5201        211
   5.5387        253
   5.5573        204
   5.5758        231
   5.5944        235
   5.6130        204
   5.6316        199
   5.6501        230
   5.6687        228
   5.6873        203
   5.7059        228
   5.7244        210
   5.7430        223
   5.7616        208
   5.7802        209
   5.7988        202
   5.8173        216
   5.8359        181
   5.8545        210
   5.8731        205
   5.8916        222
   5.9102        216
   5.9288        187
   5.9474        199
   5.9659        211
   5.9845        203
   6.0031        202
   6.0217        231
   6.0402        191
   6.0588        212
   6.0774        213
   6.0960        203
   6.1145        194
   6.1331        200
   6.1517        204
   6.1703        195
   6.1888        183
   6.2074        206
   6.2260        202
   6.2446        221
   6.2631        204
   6.2817        203
   6.3003        182
   6.3189        155
   6.3374        153
   6.3560        194
   6.3746        157
   6.3932        180
   6.4117        186
   6.4303        183
   6.4489        170
   6.4675        196
   6.4860        215
   6.5046        175
   6.5232        197
   6.5418        196
   6.5604        178
   6.5789        188
   6.5975        146
   6.6161        176
   6.6347        167
   6.6532        176
   6.6718        163
   6.6904        181
   6.7090        162
   6.7275        162
   6.7461        152
   6.7647        175
   6.7833        171
   6.8018        174
   6.8204        150
   6.8390        179
   6.8576        177
   6.8761        184
   6.8947        167
   6.9133        182
   6.9319        132
   6.9504        172
   6.9690        156
   6.9876        178
   7.0062        142
   7.0247        157
   7.0433        155
   7.0619        151
   7.0805        171
   7.0990        164
   7.1176        166
   7.1362        174
   7.1548        179
   7.1733        164
   7.1919        176
   7.2105        173
   7.2291        149
   7.2476        155
   7.2662        182
   7.2848        157
   7.3034        162
   7.3220        157
   7.3405        156
   7.3591        155
   7.3777        192
   7.3963        155
   7.4148        160
   7.4334        153
   7.4520        160
   7.4706        143
   7.4891        153
   7.5077        178
   7.5263        145
   7.5449        172
   7.5634        174
   7.5820        175
   7.6006        152
   7.6192        177
   7.6377        185
   7.6563        221
   7.6749        162
   7.6935        167
   7.7120        165
   7.7306        206
   7.7492        172
   7.7678        170
   7.7863        180
   7.8049        199
   7.8235        179
   7.8421        204
   7.8606        173
   7.8792        170
   7.8978        192
   7.9164        207
   7.9349        163
   7.9535        191
   7.9721        199
   7.9907        198
   8.0092        176
   8.0278        188
   8.0464        199
   8.0650        205
   8.0835        166
   8.1021        211
   8.1207        189
   8.1393        206
   8.1579        196
   8.1764        186
   8.1950        210
   8.2136        191
   8.2322        192
   8.2507        197
   8.2693        236
   8.2879        180
   8.3065        204
   8.3250        212
   8.3436        195
   8.3622        192
   8.3808        214
   8.3993        198
   8.4179        173
   8.4365        208
   8.4551        229
   8.4736        188
   8.4922        215
   8.5108        220
   8.5294        190
   8.5479        233
   8.5665        221
   8.5851        217
   8.6037        200
   8.6222        185
   8.6408        192
   8.6594        213
   8.6780        217
   8.6965        217
   8.7151        191
   8.7337        194
   8.7523        190
   8.7708        212
   8.7894        226
   8.8080        240
   8.8266        205
   8.8451        222
   8.8637        258
   8.8823        226
   8.9009        236
   8.9195        227
   8.9380        227
   8.9566        206
   8.9752        229
   8.9938        263
   9.0123        190
   9.0309        206
   9.0495        208
   9.0681        223
   9.0866        213
   9.1052        236
   9.1238        248
   9.1424        205
   9.1609        222
   9.1795        203
   9.1981        215
   9.2167        243
   9.2352        227
   9.2538        225
   9.2724        211
   9.2910        207
   9.3095        191
   9.3281        203
   9.3467        222
   9.3653        195
   9.3838        263
   9.4024        232
   9.4210        222
   9.4396        230
   9.4581        227
   9.4767        230
   9.4953        221
   9.5139        224
   9.5324        231
   9.5510        236
   9.5696        254
   9.5882        226
   9.6067        227
   9.6253        228
   9.6439        205
   9.6625        232
   9.6811        214
   9.6996        241
   9.7182        244
   9.7368        224
   9.7554        221
   9.7739        211
   9.7925        225
   9.8111        208
   9.8297        246
   9.8482        231
   9.8668        220
   9.8854        206
   9.9040        216
   9.9225        239
   9.9411        228
   9.9597        251
   9.9783        251
   9.9968        220
  10.0154        226
  10.0340        233
  10.0526        237
  10.0711        267
  10.0897        254
  10.1083        225
  10.1269        242
  10.1454        233
  10.1640        241
  10.1826        254
  10.2012        253
  10.2197        248
  10.2383        257
  10.2569        235
  10.2755        268
  10.2940        240
  10.3126        231
  10.3312        255
  10.3498        217
  10.3683        225
  10.3869        208
  10.4055        236
  10.4241        244
  10.4427        252
  10.4612        233
  10.4798        208
  10.4984        250
  10.5170        226
  10.5355        245
  10.5541        227
  10.5727        241
  10.5913        267
  10.6098        240
  10.6284        261
  10.6470        262
  10.6656        243
  10.6841        253
  10.7027        230
  10.7213        253
  10.7399        237
  10.7584        239
  10.7770        253
  10.7956        236
  10.8142        240
  10.8327        278
  10.8513        237
  10.8699        254
  10.8885        234
  10.9070        230
  10.9256        223
  10.9442        189
  10.9628        243
  10.9813        228
  10.9999        244
  11.0185        262
  11.0371        223
  11.0556        219
  11.0742        266
  11.0928        214
  11.1114        241
  11.1299        260
  11.1485        252
  11.1671        217
  11.1857        206
  11.2043        265
  11.2228        231
  11.2414        230
  11.2600        214
  11.2786        238
  11.2971        284
  11.3157        243
  11.3343        255
  11.3529        203
  11.3714        215
  11.3900        241
  11.4086        208
  11.4272        237
  11.4457        254
  11.4643        218
  11.4829        222
  11.5015        246
  11.5200        247
  11.5386        232
  11.5572        235
  11.5758        258
  11.5943        229
  11.6129        216
  11.6315        235
  11.6501        221
  11.6686        228
  11.6872        229
  11.7058        207
  11.7244        218
  11.7429        220
  11.7615        245
  11.7801        244
  11.7987        226
  11.8172        231
  11.8358        222
  11.8544        236
  11.8730        235
  11.8915        228
  11.9101        211
  11.9287        221
  11.9473        193
  11.9659        233
  11.9844        202
  12.0030        229
  12.0216        252
  12.0402        237
  12.0587        233
  12.0773        197
  12.0959        211
  12.1145        229
  12.1330        256
  12.1516        230
  12.1702        234
  12.1888        195
  12.2073        217
  12.2259        219
  12.2445        207
  12.2631        228
  12.2816        252
  12.3002        228
  12.3188        236
  12.3374        236
  12.3559        205
  12.3745        253
  12.3931        215
  12.4117        208
  12.4302        199
  12.4488        218
  12.4674        225
  12.4860        236
  12.5045        225
  12.5231        210
  12.5417        200
  12.5603        231
  12.5788        230
  12.5974        190
  12.6160        227
  12.6346        214
  12.6531        212
  12.6717        220
  12.6903        203
  12.7089        220
  12.7274        214
  12.7460        207
  12.7646        208
  12.7832        228
  12.8018        229
  12.8203        214
  12.8389        203
  12.8575        222
  12.8761        222
  12.8946        223
  12.9132        228
  12.9318        182
  12.9504        220
  12.9689        215
  12.9875        225
  13.0061        200
  13.0247        216
  13.0432        227
  13.0618        204
  13.0804        208
  13.0990        192
  13.1175        231
  13.1361        202
  13.1547        217
  13.1733        201
  13.1918        209
  13.2104        201
  13.2290        208
  13.2476        207
  13.2661        192
  13.2847        209
  13.3033        229
  13.3219        188
  13.3404        197
  13.3590        227
  13.3776        178
  13.3962        202
  13.4147        190
  13.4333        203
  13.4519        212
  13.4705        202
  13.4890        206
  13.5076        205
  13.5262        226
  13.5448        200
  13.5634        200
  13.5819        202
  13.6005        203
  13.6191        168
  13.6377        201
  13.6562        203
  13.6748        193
  13.6934        171
  13.7120        198
  13.7305        207
  13.7491        154
  13.7677        190
  13.7863        188
  13.8048        210
  13.8234        182
  13.8420        168
  13.8606        162
  13.8791        196
  13.8977        159
  13.9163        183
  13.9349        165
  13.9534        186
  13.9720        179
  13.9906        188
  14.0092        189
  14.0277        200
  14.0463        202
  14.0649        189
  14.0835        169
  14.1020        176
  14.1206        187
  14.1392        176
  14.1578        200
  14.1763        164
  14.1949        173
  14.2135        179
  14.2321        163
  14.2506        164
  14.2692        166
  14.2878        183
  14.3064        164
  14.3250        195
  14.3435        181
  14.3621        187
  14.3807        174
  14.3993        165
  14.4178        165
  14.4364        181
  14.4550        161
  14.4736        186
  14.4921        181
  14.5107        188
  14.5293        173
  14.5479        170
  14.5664        178
  14.5850        177
  14.6036        165
  14.6222        175
  14.6407        172
  14.6593        173
  14.6779        189
  14.6965        173
  14.7150        183
  14.7336        153
  14.7522        192
  14.7708        158
  14.7893        166
  14.8079        167
  14.8265        171
  14.8451        148
  14.8636        148
  14.8822        178
  14.9008        177
  14.9194        187
  14.9379        158
  14.9565        160
  14.9751        158
  14.9937        181
  15.0122        166
  15.0308        142
  15.0494        183
  15.0680        153
  15.0866        140
  15.1051        163
  15.1237        172
  15.1423        183
  15.1609        179
  15.1794        169
  15.1980        153
  15.2166        162
  15.2352        174
  15.2537        177
  15.2723        164
  15.2909        189
  15.3095        169
  15.3280        165
  15.3466        158
  15.3652        182
  15.3838        151
  15.4023        156
  15.4209        167
  15.4395        158
  15.4581        185
  15.4766        161
  15.4952        178
  15.5138        151
  15.5324        174
  15.5509        162
  15.5695        162
  15.5881        166
  15.6067        175
  15.6252        155
  15.6438        144
  15.6624        169
  15.6810        171
  15.6995        184
  15.7181        155
  15.7367        163
  15.7553        168
  15.7738        164
  15.7924        184
  15.8110        155
  15.8296        170
  15.8482        150
  15.8667        150
  15.8853        157
  15.9039        184
  15.9225        189
  15.9410        171
  15.9596        155
  15.9782        168
  15.9968        190
  16.0153        151
  16.0339        170
  16.0525        172
  16.0711        183
  16.0896        183
  16.1082        174
  16.1268        152
  16.1454        153
  16.1639        146
  16.1825        160
  16.2011        151
  16.2197        170
  16.2382        176
  16.2568        166
  16.2754        166
  16.2940        143
  16.3125        182
  16.3311        161
  16.3497        158
  16.3683        165
  16.3868        163
  16.4054        155
  16.4240        177
  16.4426        176
  16.4611        154
  16.4797        151
  16.4983        167
  16.5169        148
  16.5354        154
  16.5540        156
  16.5726        180
  16.5912        143
  16.6097        177
  16.6283        155
  16.6469        184
  16.6655        179
  16.6841        162
  16.7026        170
  16.7212        171
  16.7398        151
  16.7584        142
  16.7769        153
  16.7955        170
  16.8141        174
  16.8327        162
  16.8512        141
  16.8698        165
  16.8884        160
  16.9070        159
  16.9255        165
  16.9441        174
  16.9627        177
  16.9813        158
  16.9998        170
  17.0184        122
  17.0370        153
  17.0556        175
  17.0741        178
  17.0927        150
  17.1113        188
  17.1299        169
  17.1484        159
  17.1670        149
  17.1856        173
  17.2042        171
  17.2227        160
  17.2413        178
  17.2599        173
  17.2785        176
  17.2970        184
  17.3156        163
  17.3342        180
  17.3528        175
  17.3713        172
  17.3899        160
  17.4085        152
  17.4271        189
  17.4457        165
  17.4642        159
  17.4828        161
  17.5014        159
  17.5200        182
  17.5385        159
  17.5571        160
  17.5757        159
  17.5943        158
  17.6128        187
  17.6314        155
  17.6500        183
  17.6686        159
  17.6871        177
  17.7057        197
  17.7243        181
  17.7429        173
  17.7614        161
  17.7800        158
  17.7986        151
  17.8172        173
  17.8357        167
  17.8543        172
  17.8729        190
  17.8915        167
  17.9100        165
  17.9286        178
  17.9472        145
  17.9658        178
  17.9843        165
  18.0029        143
  18.0215        160
  18.0401        171
  18.0586        162
  18.0772        158
  18.0958        155
  18.1144        142
  18.1329        156
  18.1515        175
  18.1701        153
  18.1887        159
  18.2073        164
  18.2258        182
  18.2444        157
  18.2630        157
  18.2816        164
  18.3001        181
  18.3187        155
  18.3373        169
  18.3559        177
  18.3744        172
  18.3930        159
  18.4116        160
  18.4302        152
  18.4487        158
  18.4673        172
  18.4859        161
  18.5045        152
  18.5230        178
  18.5416        188
  18.5602        161
  18.5788        171
  18.5973        176
  18.6159        175
  18.6345        173
  18.6531        157
  18.6716        159
  18.6902        162
  18.7088        173
  18.7274        173
  18.7459        184
  18.7645        170
  18.7831        172
  18.8017        193
  18.8202        179
  18.8388        189
  18.8574        175
  18.8760        171
  18.8945        138
  18.9131        157
  18.9317        168
  18.9503        166
  18.9689        164
  18.9874        178
  19.0060        156
  19.0246        189
  19.0432        151
  19.0617        174
  19.0803        172
  19.0989        176
  19.1175        160
  19.1360        171
  19.1546        167
  19.1732        172
  19.1918        189
  19.2103        171
  19.2289        174
  19.2475        169
  19.2661        160
  19.2846        162
  19.3032        159
  19.3218        184
  19.3404        149
  19.3589        178
  19.3775        181
  19.3961        164
  19.4147        159
  19.4332        185
  19.4518        176
  19.4704        158
  19.4890        196
  19.5075        138
  19.5261        178
  19.5447        170
  19.5633        191
  19.5818        177
  19.6004        154
  19.6190        168
  19.6376        179
  19.6561        175
  19.6747        161
  19.6933        181
  19.7119        199
  19.7305        179
  19.7490        170
  19.7676        165
  19.7862        173
  19.8048        186
  19.8233        187
  19.8419        170
  19.8605        157
  19.8791        184
  19.8976        179
  19.9162        174
  19.9348        160
  19.9534        169
  19.9719        182
  19.9905        175
  20.0091        177
  20.0277        165
  20.0462        204
  20.0648        163
  20.0834        187
  20.1020        181
  20.1205        188
  20.1391        157
  20.1577        168
  20.1763        181
  20.1948        175
  20.2134        177
  20.2320        163
  20.2506        172
  20.2691        204
  20.2877        181
  20.3063        192
  20.3249        185
  20.3434        177
  20.3620        180
  20.3806        189
  20.3992        178
  20.4177        181
  20.4363        185
  20.4549        190
  20.4735        204
