; (content of file Y:\Sam\Apurva-07-20-2022\puck4\ML_20220718_9_SJD_0_LaB6-2min.raw)
_FILEVERSION = 3
_SAMPLE = ML_20220718_9_SJD_0_LaB6-2min
_+SAMPLE = 
_SITE = USA
_USER = Administrator
_GONIOMETER_CODE = 20
; Goniometer : D8 theta/2theta, stage : Unknown
_ATTACHMENTS_CODE = 0
_GONIOMETER_RADIUS = 200.5
_FIXED_DIVSLIT = 0.6
_FIXED_SAMPLESLIT = 0
_SOLLER_SLITS = 2
_FIXED_DETSLIT = 9.55
_MONOCHROMATOR = 0
; Incident beam monochromator : None
_SOLLER_SLITS_2 = N
_THIN_FILM = N
_BETA_FILTER = Y
_FIXED_ANTISLIT = 5.89
_ANALYZER_CODE = 0
; Received beam analyzer : None
_DATEMEASURED = "26-Jul-2022 10:03:50"
_WL_UNIT = A
_WL1 = 1.5406
_WL2 = 1.54439
_WL3 = 1.39222
_WLRATIO = 0.5
_ANODE = Cu
_V4_INF_CREATOR = XRDWizard
_V4_INF_CREATOR_VERSION = V2.9.0.22
_V4_INF_WIZARD_VERSION = V2.9.0.22
_V4_INF_WIZARD_ADDINS = V2.9.0.22
_V4_INF_WIZARD_DOCTYPE = XRD
_V4_INF_OSUSER = McQueenLab
_V4_INF_USER = Administrator
_V4_INF_SITE = USA
_V4_INF_SAMPLEID = ML_20220718_9_SJD_0_LaB6-2min

; Data for range 1
_DRIVE = COUPLED
_STEPTIME = 5.64
_STEPSIZE = 0.0185756
_STEPMODE = C
_START = 5
_THETA = 2.5
_2THETA = 5
_KHI = 0
_PHI = 0
_X = 0
_Y = 0
_Z = 0
_DETECTOR = 5
; Detector type : Unknown
_DETECTORSLIT = unkn
_AUX1 = 0
_AUX2 = 0
_AUX3 = 0
_TIMESTARTED = 15
_TEMP_RATE = -1
_TEMP_DELAY = -1
_KV = 40
_MA = 40
_RANGE_WL = 1.5406
_3DPLANE = 0
_V4_ADDITIONALDETECTOR = 257
_V4_PSD2THETA = 3.3732
_V4_PSDCHANNEL1 = 0
_V4_PSDAPERTURE = 12.68
_V4_PSDTYPE = 5
_V4_PSDFIXED = 0
_V4_COUNTERS_MASK = 4096
_V4_DRIVES_MASK = 0
_V4_ENCODERS_MASK = 0
_2THETACOUNTS = 1
; 2THETA  PSD
   5.0000        133
   5.0186        131
   5.0372        121
   5.0557        153
   5.0743        121
   5.0929        146
   5.1115        157
   5.1300        135
   5.1486        152
   5.1672        121
   5.1858        116
   5.2043        134
   5.2229        107
   5.2415        127
   5.2601        121
   5.2786        129
   5.2972        109
   5.3158        116
   5.3344        113
   5.3529        123
   5.3715        112
   5.3901        108
   5.4087        111
   5.4272        116
   5.4458        107
   5.4644        120
   5.4830        136
   5.5015        134
   5.5201        111
   5.5387         94
   5.5573         97
   5.5758        110
   5.5944        100
   5.6130        118
   5.6316        110
   5.6501        104
   5.6687         97
   5.6873        103
   5.7059         95
   5.7244         97
   5.7430        100
   5.7616         93
   5.7802        108
   5.7988        100
   5.8173        102
   5.8359        120
   5.8545         90
   5.8731         88
   5.8916        113
   5.9102        102
   5.9288         91
   5.9474         93
   5.9659        100
   5.9845        115
   6.0031        107
   6.0217         95
   6.0402         86
   6.0588        116
   6.0774         85
   6.0960         89
   6.1145         81
   6.1331        109
   6.1517         90
   6.1703        111
   6.1888         92
   6.2074         96
   6.2260         99
   6.2446         79
   6.2631         86
   6.2817         98
   6.3003         98
   6.3189         89
   6.3374         89
   6.3560         86
   6.3746         87
   6.3932         99
   6.4117        101
   6.4303         98
   6.4489         83
   6.4675         93
   6.4860        102
   6.5046         95
   6.5232         99
   6.5418         88
   6.5604         98
   6.5789         77
   6.5975         88
   6.6161         98
   6.6347         93
   6.6532         87
   6.6718         99
   6.6904         78
   6.7090         87
   6.7275         74
   6.7461         81
   6.7647         82
   6.7833         87
   6.8018         88
   6.8204         95
   6.8390         96
   6.8576         82
   6.8761         84
   6.8947         81
   6.9133         76
   6.9319         84
   6.9504         86
   6.9690         82
   6.9876         88
   7.0062         85
   7.0247         85
   7.0433         74
   7.0619         77
   7.0805         88
   7.0990         72
   7.1176         74
   7.1362         69
   7.1548         79
   7.1733         67
   7.1919         86
   7.2105         83
   7.2291         74
   7.2476         85
   7.2662         75
   7.2848         89
   7.3034         84
   7.3220         69
   7.3405         68
   7.3591         83
   7.3777         71
   7.3963         82
   7.4148         74
   7.4334         79
   7.4520         68
   7.4706         98
   7.4891         89
   7.5077         90
   7.5263         88
   7.5449         97
   7.5634         84
   7.5820         70
   7.6006         95
   7.6192         97
   7.6377         90
   7.6563         98
   7.6749         84
   7.6935         83
   7.7120         87
   7.7306        102
   7.7492         72
   7.7678         94
   7.7863         77
   7.8049        104
   7.8235         89
   7.8421         92
   7.8606         93
   7.8792         91
   7.8978        100
   7.9164         76
   7.9349         81
   7.9535         95
   7.9721         81
   7.9907         85
   8.0092         88
   8.0278        104
   8.0464         84
   8.0650         84
   8.0835         97
   8.1021         91
   8.1207         78
   8.1393         79
   8.1579        119
   8.1764        103
   8.1950        108
   8.2136        106
   8.2322         85
   8.2507        106
   8.2693         98
   8.2879        114
   8.3065        118
   8.3250         95
   8.3436         92
   8.3622         95
   8.3808        104
   8.3993         97
   8.4179         97
   8.4365         91
   8.4551         90
   8.4736         89
   8.4922        104
   8.5108        104
   8.5294        118
   8.5479         91
   8.5665        100
   8.5851         98
   8.6037        108
   8.6222        106
   8.6408         88
   8.6594        107
   8.6780        107
   8.6965         87
   8.7151         90
   8.7337        100
   8.7523        104
   8.7708        105
   8.7894         89
   8.8080         87
   8.8266         96
   8.8451        117
   8.8637        100
   8.8823        115
   8.9009         96
   8.9195         98
   8.9380        108
   8.9566        121
   8.9752         94
   8.9938         98
   9.0123        106
   9.0309        111
   9.0495        115
   9.0681        107
   9.0866         98
   9.1052        105
   9.1238        117
   9.1424        109
   9.1609        104
   9.1795        107
   9.1981        116
   9.2167        110
   9.2352        109
   9.2538         99
   9.2724        108
   9.2910        106
   9.3095        121
   9.3281        133
   9.3467        121
   9.3653        126
   9.3838        120
   9.4024        123
   9.4210        104
   9.4396        122
   9.4581        117
   9.4767        120
   9.4953        106
   9.5139         99
   9.5324        135
   9.5510        113
   9.5696        104
   9.5882         91
   9.6067        118
   9.6253        148
   9.6439        130
   9.6625         98
   9.6811        117
   9.6996        109
   9.7182        115
   9.7368         89
   9.7554         98
   9.7739        109
   9.7925        122
   9.8111        120
   9.8297        123
   9.8482        115
   9.8668        119
   9.8854        115
   9.9040        125
   9.9225        151
   9.9411        106
   9.9597        109
   9.9783        129
   9.9968        125
  10.0154        119
  10.0340        121
  10.0526        110
  10.0711        101
  10.0897        111
  10.1083        126
  10.1269        118
  10.1454        116
  10.1640        128
  10.1826        130
  10.2012        112
  10.2197        132
  10.2383        127
  10.2569        134
  10.2755        117
  10.2940        131
  10.3126        126
  10.3312        126
  10.3498        115
  10.3683        110
  10.3869        110
  10.4055        104
  10.4241        112
  10.4427        114
  10.4612        105
  10.4798        112
  10.4984        135
  10.5170        119
  10.5355        123
  10.5541        124
  10.5727        115
  10.5913        102
  10.6098        126
  10.6284        124
  10.6470        130
  10.6656        132
  10.6841        124
  10.7027        108
  10.7213        113
  10.7399        125
  10.7584        101
  10.7770        122
  10.7956        121
  10.8142        119
  10.8327        120
  10.8513        101
  10.8699        119
  10.8885        121
  10.9070        112
  10.9256        129
  10.9442        123
  10.9628        109
  10.9813        105
  10.9999        115
  11.0185        132
  11.0371        111
  11.0556        114
  11.0742        145
  11.0928        109
  11.1114        130
  11.1299        107
  11.1485        116
  11.1671        127
  11.1857        121
  11.2043        107
  11.2228        109
  11.2414        116
  11.2600        108
  11.2786        131
  11.2971        128
  11.3157        125
  11.3343        109
  11.3529        122
  11.3714        113
  11.3900        121
  11.4086        135
  11.4272        134
  11.4457        127
  11.4643        119
  11.4829        130
  11.5015        114
  11.5200        116
  11.5386        128
  11.5572        124
  11.5758        142
  11.5943        121
  11.6129        132
  11.6315        112
  11.6501        140
  11.6686        140
  11.6872        118
  11.7058        134
  11.7244        120
  11.7429        111
  11.7615        120
  11.7801        110
  11.7987        116
  11.8172        103
  11.8358         96
  11.8544        111
  11.8730        107
  11.8915        112
  11.9101        114
  11.9287        105
  11.9473        103
  11.9659        110
  11.9844        108
  12.0030        122
  12.0216        116
  12.0402        112
  12.0587        107
  12.0773        126
  12.0959        109
  12.1145        102
  12.1330        105
  12.1516         98
  12.1702         94
  12.1888        101
  12.2073        118
  12.2259        106
  12.2445        109
  12.2631        100
  12.2816        101
  12.3002        106
  12.3188        115
  12.3374        105
  12.3559        126
  12.3745        124
  12.3931        103
  12.4117        122
  12.4302        115
  12.4488        111
  12.4674        106
  12.4860        110
  12.5045        122
  12.5231        119
  12.5417        116
  12.5603        105
  12.5788         98
  12.5974         99
  12.6160        121
  12.6346         90
  12.6531         97
  12.6717         93
  12.6903         96
  12.7089         92
  12.7274        107
  12.7460         97
  12.7646        108
  12.7832         88
  12.8018        117
  12.8203         96
  12.8389        118
  12.8575         98
  12.8761        109
  12.8946        113
  12.9132        102
  12.9318        118
  12.9504         88
  12.9689         78
  12.9875         98
  13.0061        115
  13.0247        100
  13.0432        101
  13.0618        114
  13.0804        102
  13.0990        100
  13.1175         90
  13.1361         99
  13.1547        108
  13.1733         79
  13.1918         94
  13.2104         97
  13.2290        106
  13.2476         92
  13.2661        113
  13.2847        100
  13.3033         88
  13.3219        114
  13.3404        102
  13.3590        110
  13.3776        110
  13.3962         95
  13.4147         87
  13.4333         96
  13.4519         98
  13.4705         96
  13.4890         95
  13.5076        107
  13.5262         98
  13.5448         95
  13.5634        101
  13.5819        104
  13.6005         98
  13.6191         93
  13.6377         91
  13.6562         89
  13.6748         82
  13.6934         91
  13.7120         89
  13.7305         93
  13.7491         92
  13.7677         98
  13.7863         94
  13.8048         92
  13.8234         96
  13.8420         94
  13.8606        110
  13.8791         95
  13.8977         79
  13.9163         95
  13.9349         96
  13.9534        100
  13.9720         96
  13.9906        100
  14.0092         89
  14.0277         85
  14.0463        110
  14.0649         80
  14.0835         98
  14.1020        110
  14.1206        106
  14.1392         85
  14.1578         93
  14.1763         94
  14.1949         83
  14.2135         98
  14.2321         82
  14.2506         64
  14.2692         85
  14.2878         84
  14.3064         90
  14.3250         77
  14.3435         73
  14.3621         91
  14.3807         91
  14.3993         71
  14.4178        106
  14.4364         95
  14.4550         85
  14.4736         82
  14.4921         84
  14.5107         93
  14.5293         87
  14.5479         89
  14.5664        102
  14.5850         79
  14.6036         98
  14.6222         87
  14.6407         80
  14.6593         95
  14.6779         98
  14.6965         84
  14.7150         70
  14.7336         95
  14.7522         70
  14.7708         74
  14.7893         73
  14.8079         85
  14.8265         82
  14.8451         86
  14.8636         81
  14.8822         85
  14.9008         78
  14.9194         85
  14.9379         90
  14.9565         89
  14.9751         78
  14.9937         87
  15.0122         97
  15.0308         95
  15.0494         80
  15.0680         91
  15.0866         77
  15.1051         83
  15.1237         86
  15.1423         81
  15.1609         87
  15.1794         73
  15.1980         88
  15.2166         73
  15.2352         73
  15.2537         78
  15.2723         74
  15.2909         70
  15.3095         76
  15.3280         80
  15.3466         87
  15.3652         76
  15.3838         74
  15.4023         85
  15.4209         79
  15.4395        109
  15.4581         82
  15.4766         81
  15.4952         76
  15.5138         81
  15.5324         96
  15.5509         85
  15.5695         85
  15.5881         68
  15.6067         72
  15.6252         90
  15.6438         95
  15.6624         74
  15.6810         72
  15.6995         93
  15.7181         91
  15.7367         87
  15.7553         90
  15.7738         77
  15.7924         80
  15.8110         75
  15.8296         86
  15.8482        120
  15.8667         85
  15.8853         85
  15.9039         95
  15.9225         90
  15.9410         78
  15.9596         65
  15.9782         85
  15.9968         81
  16.0153         83
  16.0339         78
  16.0525         76
  16.0711         81
  16.0896         77
  16.1082        101
  16.1268         83
  16.1454         78
  16.1639         84
  16.1825         66
  16.2011         71
  16.2197         81
  16.2382         93
  16.2568         89
  16.2754         63
  16.2940         86
  16.3125         93
  16.3311         90
  16.3497         83
  16.3683         84
  16.3868         80
  16.4054         94
  16.4240         76
  16.4426         80
  16.4611         72
  16.4797         67
  16.4983         81
  16.5169         77
  16.5354         72
  16.5540         66
  16.5726         79
  16.5912         86
  16.6097         90
  16.6283         79
  16.6469         96
  16.6655         89
  16.6841         84
  16.7026         89
  16.7212         70
  16.7398         79
  16.7584         98
  16.7769         77
  16.7955         63
  16.8141         89
  16.8327         93
  16.8512         79
  16.8698         67
  16.8884         74
  16.9070         82
  16.9255         77
  16.9441         70
  16.9627         81
  16.9813         80
  16.9998         92
  17.0184         75
  17.0370         83
  17.0556         76
  17.0741         77
  17.0927         87
  17.1113         81
  17.1299         90
  17.1484         95
  17.1670         69
  17.1856         87
  17.2042         82
  17.2227         82
  17.2413         89
  17.2599         84
  17.2785         78
  17.2970         78
  17.3156         72
  17.3342         73
  17.3528         82
  17.3713         64
  17.3899         78
  17.4085         66
  17.4271         80
  17.4457         87
  17.4642         69
  17.4828         87
  17.5014         65
  17.5200         72
  17.5385         69
  17.5571         81
  17.5757         85
  17.5943         92
  17.6128         82
  17.6314         85
  17.6500         73
  17.6686         92
  17.6871         92
  17.7057         83
  17.7243         72
  17.7429         77
  17.7614         79
  17.7800         80
  17.7986         90
  17.8172         71
  17.8357         97
  17.8543         84
  17.8729         85
  17.8915         93
  17.9100         77
  17.9286         98
  17.9472         79
  17.9658         79
  17.9843         79
  18.0029         91
  18.0215         90
  18.0401         76
  18.0586        100
  18.0772         80
  18.0958         85
  18.1144         73
  18.1329         86
  18.1515         80
  18.1701         75
  18.1887         84
  18.2073         89
  18.2258         90
  18.2444         87
  18.2630         77
  18.2816         97
  18.3001         76
  18.3187         95
  18.3373         80
  18.3559         83
  18.3744         83
  18.3930         72
  18.4116         89
  18.4302         85
  18.4487        109
  18.4673         83
  18.4859         71
  18.5045         68
  18.5230         69
  18.5416         79
  18.5602         68
  18.5788         79
  18.5973         84
  18.6159        100
  18.6345         86
  18.6531         94
  18.6716         77
  18.6902         95
  18.7088         81
  18.7274         82
  18.7459         83
  18.7645         84
  18.7831         88
  18.8017         83
  18.8202         85
  18.8388         88
  18.8574         87
  18.8760         66
  18.8945         76
  18.9131         67
  18.9317         73
  18.9503         93
  18.9689         59
  18.9874         86
  19.0060         72
  19.0246         68
  19.0432         97
  19.0617         95
  19.0803         95
  19.0989         97
  19.1175         77
  19.1360         84
  19.1546         76
  19.1732         73
  19.1918         73
  19.2103         74
  19.2289         84
  19.2475         84
  19.2661         59
  19.2846         95
  19.3032         95
  19.3218         96
  19.3404         92
  19.3589        101
  19.3775         78
  19.3961         90
  19.4147         94
  19.4332         84
  19.4518        101
  19.4704         79
  19.4890         83
  19.5075         83
  19.5261         83
  19.5447        103
  19.5633         79
  19.5818         97
  19.6004         86
  19.6190        101
  19.6376         96
  19.6561         82
  19.6747         87
  19.6933         95
  19.7119         86
  19.7305         88
  19.7490         71
  19.7676         92
  19.7862        102
  19.8048         90
  19.8233         76
  19.8419         81
  19.8605         88
  19.8791         85
  19.8976         93
  19.9162         99
  19.9348         53
  19.9534         89
  19.9719         83
  19.9905         90
  20.0091         88
  20.0277         83
  20.0462         77
  20.0648        103
  20.0834         98
  20.1020         83
  20.1205         79
  20.1391        110
  20.1577         97
  20.1763         95
  20.1948         94
  20.2134        103
  20.2320         98
  20.2506         77
  20.2691         97
  20.2877         77
  20.3063         83
  20.3249         80
  20.3434         94
  20.3620         87
  20.3806        120
  20.3992         95
  20.4177         91
  20.4363         81
  20.4549         95
  20.4735         93
