; (content of file Y:\Sam\Apurva-07-20-2022\puck4\ML_20220718_54_SJD_4_LaB6-2min.raw)
_FILEVERSION = 3
_SAMPLE = ML_20220718_54_SJD_4_LaB6-2min
_+SAMPLE = 
_SITE = USA
_USER = Administrator
_GONIOMETER_CODE = 20
; Goniometer : D8 theta/2theta, stage : Unknown
_ATTACHMENTS_CODE = 0
_GONIOMETER_RADIUS = 200.5
_FIXED_DIVSLIT = 0.6
_FIXED_SAMPLESLIT = 0
_SOLLER_SLITS = 2
_FIXED_DETSLIT = 9.55
_MONOCHROMATOR = 0
; Incident beam monochromator : None
_SOLLER_SLITS_2 = N
_THIN_FILM = N
_BETA_FILTER = Y
_FIXED_ANTISLIT = 5.89
_ANALYZER_CODE = 0
; Received beam analyzer : None
_DATEMEASURED = "26-Jul-2022 12:37:12"
_WL_UNIT = A
_WL1 = 1.5406
_WL2 = 1.54439
_WL3 = 1.39222
_WLRATIO = 0.5
_ANODE = Cu
_V4_INF_CREATOR = XRDWizard
_V4_INF_CREATOR_VERSION = V2.9.0.22
_V4_INF_WIZARD_VERSION = V2.9.0.22
_V4_INF_WIZARD_ADDINS = V2.9.0.22
_V4_INF_WIZARD_DOCTYPE = XRD
_V4_INF_OSUSER = McQueenLab
_V4_INF_USER = Administrator
_V4_INF_SITE = USA
_V4_INF_SAMPLEID = ML_20220718_54_SJD_4_LaB6-2min

; Data for range 1
_DRIVE = COUPLED
_STEPTIME = 5.64
_STEPSIZE = 0.0185756
_STEPMODE = C
_START = 5
_THETA = 2.5
_2THETA = 5
_KHI = 0
_PHI = 0
_X = 0
_Y = 0
_Z = 0
_DETECTOR = 5
; Detector type : Unknown
_DETECTORSLIT = unkn
_AUX1 = 0
_AUX2 = 0
_AUX3 = 0
_TIMESTARTED = 15
_TEMP_RATE = -1
_TEMP_DELAY = -1
_KV = 40
_MA = 40
_RANGE_WL = 1.5406
_3DPLANE = 0
_V4_ADDITIONALDETECTOR = 257
_V4_PSD2THETA = 3.3706
_V4_PSDCHANNEL1 = 0
_V4_PSDAPERTURE = 12.68
_V4_PSDTYPE = 5
_V4_PSDFIXED = 0
_V4_COUNTERS_MASK = 4096
_V4_DRIVES_MASK = 0
_V4_ENCODERS_MASK = 0
_2THETACOUNTS = 1
; 2THETA  PSD
   5.0000        114
   5.0186        109
   5.0372        143
   5.0557        127
   5.0743        147
   5.0929        111
   5.1115        136
   5.1300        118
   5.1486        115
   5.1672        118
   5.1858        132
   5.2043        123
   5.2229        127
   5.2415        138
   5.2601        117
   5.2786        118
   5.2972        125
   5.3158        115
   5.3344        112
   5.3529        122
   5.3715        106
   5.3901        122
   5.4087        121
   5.4272        110
   5.4458         98
   5.4644        129
   5.4830        121
   5.5015        115
   5.5201        120
   5.5387        112
   5.5573        106
   5.5758         87
   5.5944        106
   5.6130        102
   5.6316         93
   5.6501        112
   5.6687        110
   5.6873         92
   5.7059        102
   5.7244        100
   5.7430        123
   5.7616         92
   5.7802        105
   5.7988        103
   5.8173         81
   5.8359        103
   5.8545        135
   5.8731        115
   5.8916         85
   5.9102         93
   5.9288        100
   5.9474        102
   5.9659         97
   5.9845         96
   6.0031         89
   6.0217         97
   6.0402         97
   6.0588        105
   6.0774         87
   6.0960         90
   6.1145         93
   6.1331         95
   6.1517         76
   6.1703        102
   6.1888         90
   6.2074         94
   6.2260         89
   6.2446         88
   6.2631         74
   6.2817         94
   6.3003         90
   6.3189         90
   6.3374         95
   6.3560         94
   6.3746        103
   6.3932         90
   6.4117         91
   6.4303         96
   6.4489         94
   6.4675         75
   6.4860         95
   6.5046         95
   6.5232         99
   6.5418         82
   6.5604         74
   6.5789         84
   6.5975         84
   6.6161         76
   6.6347         88
   6.6532         70
   6.6718         83
   6.6904         80
   6.7090        104
   6.7275        104
   6.7461         82
   6.7647         87
   6.7833         73
   6.8018         80
   6.8204         88
   6.8390         84
   6.8576         83
   6.8761         91
   6.8947         85
   6.9133         94
   6.9319         80
   6.9504         78
   6.9690         79
   6.9876         83
   7.0062         78
   7.0247         76
   7.0433         63
   7.0619         81
   7.0805         78
   7.0990         80
   7.1176         97
   7.1362         68
   7.1548         85
   7.1733         82
   7.1919         80
   7.2105         77
   7.2291         66
   7.2476         69
   7.2662         81
   7.2848         81
   7.3034         82
   7.3220         63
   7.3405         83
   7.3591         93
   7.3777         71
   7.3963         82
   7.4148         79
   7.4334         86
   7.4520         76
   7.4706        105
   7.4891         90
   7.5077         86
   7.5263         83
   7.5449         53
   7.5634         88
   7.5820         80
   7.6006         81
   7.6192         77
   7.6377         88
   7.6563         96
   7.6749         89
   7.6935         92
   7.7120         81
   7.7306         90
   7.7492         91
   7.7678        100
   7.7863         99
   7.8049         81
   7.8235         89
   7.8421        107
   7.8606        108
   7.8792         84
   7.8978         80
   7.9164         82
   7.9349         83
   7.9535         73
   7.9721         86
   7.9907        102
   8.0092         67
   8.0278         90
   8.0464         97
   8.0650         95
   8.0835         94
   8.1021         88
   8.1207         95
   8.1393         79
   8.1579         82
   8.1764         95
   8.1950         87
   8.2136        109
   8.2322         81
   8.2507        100
   8.2693        105
   8.2879         92
   8.3065        105
   8.3250        114
   8.3436        103
   8.3622         87
   8.3808        101
   8.3993         97
   8.4179        112
   8.4365         98
   8.4551         96
   8.4736        107
   8.4922        101
   8.5108         96
   8.5294        102
   8.5479         98
   8.5665        106
   8.5851         94
   8.6037         96
   8.6222         98
   8.6408        102
   8.6594         92
   8.6780         96
   8.6965        117
   8.7151        106
   8.7337         89
   8.7523        122
   8.7708        106
   8.7894        106
   8.8080         93
   8.8266        114
   8.8451         90
   8.8637        110
   8.8823        108
   8.9009        103
   8.9195        107
   8.9380        136
   8.9566        110
   8.9752        103
   8.9938         95
   9.0123         92
   9.0309        105
   9.0495        100
   9.0681        113
   9.0866        101
   9.1052         98
   9.1238        105
   9.1424         90
   9.1609        103
   9.1795        123
   9.1981         97
   9.2167         95
   9.2352        100
   9.2538        105
   9.2724        109
   9.2910        111
   9.3095        110
   9.3281        110
   9.3467        107
   9.3653        109
   9.3838        108
   9.4024        110
   9.4210        104
   9.4396        102
   9.4581        117
   9.4767        105
   9.4953        108
   9.5139        112
   9.5324        111
   9.5510         98
   9.5696        117
   9.5882         90
   9.6067        109
   9.6253        102
   9.6439        104
   9.6625        100
   9.6811        111
   9.6996        110
   9.7182        105
   9.7368        105
   9.7554        111
   9.7739        137
   9.7925        105
   9.8111         95
   9.8297        126
   9.8482        131
   9.8668        120
   9.8854        108
   9.9040        120
   9.9225        108
   9.9411        115
   9.9597        112
   9.9783        120
   9.9968        122
  10.0154        107
  10.0340         99
  10.0526        104
  10.0711        106
  10.0897        124
  10.1083        121
  10.1269        123
  10.1454        116
  10.1640        120
  10.1826        135
  10.2012        126
  10.2197        101
  10.2383        116
  10.2569        110
  10.2755        114
  10.2940        117
  10.3126        118
  10.3312        111
  10.3498        115
  10.3683        124
  10.3869        108
  10.4055        111
  10.4241        118
  10.4427        107
  10.4612        109
  10.4798        126
  10.4984        105
  10.5170        112
  10.5355        116
  10.5541        107
  10.5727        119
  10.5913        130
  10.6098        121
  10.6284        102
  10.6470        106
  10.6656        128
  10.6841        119
  10.7027        110
  10.7213        117
  10.7399        135
  10.7584        116
  10.7770        102
  10.7956        113
  10.8142        106
  10.8327        102
  10.8513        137
  10.8699        121
  10.8885        116
  10.9070        126
  10.9256        111
  10.9442        139
  10.9628        120
  10.9813        123
  10.9999        106
  11.0185        134
  11.0371        114
  11.0556        113
  11.0742        129
  11.0928        124
  11.1114        133
  11.1299        125
  11.1485        116
  11.1671         93
  11.1857        118
  11.2043        117
  11.2228        111
  11.2414        113
  11.2600        132
  11.2786        106
  11.2971        106
  11.3157        121
  11.3343        121
  11.3529        122
  11.3714        130
  11.3900        136
  11.4086        112
  11.4272        113
  11.4457        118
  11.4643        127
  11.4829        120
  11.5015        106
  11.5200        130
  11.5386        129
  11.5572         98
  11.5758        112
  11.5943        110
  11.6129        124
  11.6315        102
  11.6501        117
  11.6686        106
  11.6872        113
  11.7058        104
  11.7244        107
  11.7429         98
  11.7615        114
  11.7801        119
  11.7987        100
  11.8172        124
  11.8358        123
  11.8544        110
  11.8730        123
  11.8915        121
  11.9101        100
  11.9287        119
  11.9473        125
  11.9659        108
  11.9844        125
  12.0030        103
  12.0216         87
  12.0402        111
  12.0587         94
  12.0773         89
  12.0959        124
  12.1145        108
  12.1330        103
  12.1516        108
  12.1702        132
  12.1888        130
  12.2073        112
  12.2259         94
  12.2445        111
  12.2631        136
  12.2816        130
  12.3002        101
  12.3188         91
  12.3374        136
  12.3559        114
  12.3745        107
  12.3931        120
  12.4117        125
  12.4302        111
  12.4488         99
  12.4674        117
  12.4860        117
  12.5045        115
  12.5231        102
  12.5417         92
  12.5603        101
  12.5788        103
  12.5974        118
  12.6160         94
  12.6346         97
  12.6531        104
  12.6717        106
  12.6903        113
  12.7089        114
  12.7274        110
  12.7460         92
  12.7646        108
  12.7832        113
  12.8018        106
  12.8203        113
  12.8389        102
  12.8575         81
  12.8761        114
  12.8946        128
  12.9132        107
  12.9318        112
  12.9504         84
  12.9689         87
  12.9875         69
  13.0061        109
  13.0247        106
  13.0432         89
  13.0618        116
  13.0804         95
  13.0990        128
  13.1175        111
  13.1361        121
  13.1547         87
  13.1733        104
  13.1918        100
  13.2104         98
  13.2290         90
  13.2476         84
  13.2661         94
  13.2847         92
  13.3033         79
  13.3219        113
  13.3404         91
  13.3590         97
  13.3776         92
  13.3962         98
  13.4147        113
  13.4333         85
  13.4519         93
  13.4705        104
  13.4890        108
  13.5076         88
  13.5262        103
  13.5448         75
  13.5634        107
  13.5819        109
  13.6005         85
  13.6191         78
  13.6377        110
  13.6562         87
  13.6748         94
  13.6934         88
  13.7120         85
  13.7305         96
  13.7491         99
  13.7677        103
  13.7863        101
  13.8048        103
  13.8234         92
  13.8420         97
  13.8606         88
  13.8791         81
  13.8977        105
  13.9163         82
  13.9349         71
  13.9534         94
  13.9720         81
  13.9906         74
  14.0092         89
  14.0277        106
  14.0463         79
  14.0649         89
  14.0835         92
  14.1020        108
  14.1206         92
  14.1392         74
  14.1578         80
  14.1763        103
  14.1949        103
  14.2135         87
  14.2321         77
  14.2506         89
  14.2692         84
  14.2878         81
  14.3064         88
  14.3250         85
  14.3435         96
  14.3621         81
  14.3807         95
  14.3993         65
  14.4178         86
  14.4364         82
  14.4550         90
  14.4736         95
  14.4921         82
  14.5107         89
  14.5293         88
  14.5479         83
  14.5664         80
  14.5850         94
  14.6036         91
  14.6222         83
  14.6407         81
  14.6593         91
  14.6779         85
  14.6965         78
  14.7150         81
  14.7336         81
  14.7522         88
  14.7708         84
  14.7893         96
  14.8079         79
  14.8265         82
  14.8451         92
  14.8636         87
  14.8822         68
  14.9008         78
  14.9194         83
  14.9379         80
  14.9565         78
  14.9751         84
  14.9937         86
  15.0122         95
  15.0308         85
  15.0494         64
  15.0680         66
  15.0866         85
  15.1051         76
  15.1237         81
  15.1423         75
  15.1609         69
  15.1794         64
  15.1980         89
  15.2166         88
  15.2352         84
  15.2537         77
  15.2723         78
  15.2909         84
  15.3095        106
  15.3280         81
  15.3466         94
  15.3652         86
  15.3838         79
  15.4023         81
  15.4209         84
  15.4395         73
  15.4581         69
  15.4766         82
  15.4952         87
  15.5138         70
  15.5324         90
  15.5509         69
  15.5695         74
  15.5881         80
  15.6067         83
  15.6252         81
  15.6438         74
  15.6624         64
  15.6810         65
  15.6995        100
  15.7181         96
  15.7367         84
  15.7553         68
  15.7738         81
  15.7924         70
  15.8110         87
  15.8296         90
  15.8482         80
  15.8667         70
  15.8853         76
  15.9039         77
  15.9225         87
  15.9410         78
  15.9596         91
  15.9782         74
  15.9968         84
  16.0153         70
  16.0339         71
  16.0525         82
  16.0711         75
  16.0896         77
  16.1082         83
  16.1268         76
  16.1454         78
  16.1639         79
  16.1825         76
  16.2011         81
  16.2197         74
  16.2382         88
  16.2568         69
  16.2754         67
  16.2940         66
  16.3125         73
  16.3311         59
  16.3497        115
  16.3683         73
  16.3868         73
  16.4054         81
  16.4240         99
  16.4426         79
  16.4611         81
  16.4797         86
  16.4983         81
  16.5169         84
  16.5354         80
  16.5540         93
  16.5726         63
  16.5912         77
  16.6097         79
  16.6283         75
  16.6469         83
  16.6655         81
  16.6841         79
  16.7026         83
  16.7212         64
  16.7398         64
  16.7584         92
  16.7769         75
  16.7955         86
  16.8141         81
  16.8327         91
  16.8512         76
  16.8698         81
  16.8884         95
  16.9070         67
  16.9255         72
  16.9441         89
  16.9627         79
  16.9813         86
  16.9998         81
  17.0184         60
  17.0370         92
  17.0556         79
  17.0741         81
  17.0927         78
  17.1113         76
  17.1299         80
  17.1484         87
  17.1670         80
  17.1856         86
  17.2042         73
  17.2227         74
  17.2413         67
  17.2599         63
  17.2785         78
  17.2970         92
  17.3156         83
  17.3342         83
  17.3528         80
  17.3713         81
  17.3899         75
  17.4085         88
  17.4271         73
  17.4457         95
  17.4642         74
  17.4828         73
  17.5014         59
  17.5200         67
  17.5385         77
  17.5571         79
  17.5757         80
  17.5943         66
  17.6128         95
  17.6314         90
  17.6500         71
  17.6686         85
  17.6871         81
  17.7057         83
  17.7243         75
  17.7429         88
  17.7614        102
  17.7800         79
  17.7986         74
  17.8172         73
  17.8357         75
  17.8543         69
  17.8729         84
  17.8915         61
  17.9100         76
  17.9286         74
  17.9472         87
  17.9658         81
  17.9843         91
  18.0029         82
  18.0215         80
  18.0401         90
  18.0586         90
  18.0772         74
  18.0958         83
  18.1144         80
  18.1329         77
  18.1515         70
  18.1701         68
  18.1887         84
  18.2073         84
  18.2258         75
  18.2444         77
  18.2630         93
  18.2816         73
  18.3001         82
  18.3187         83
  18.3373         79
  18.3559         70
  18.3744         81
  18.3930         72
  18.4116         81
  18.4302         74
  18.4487         88
  18.4673         96
  18.4859        102
  18.5045         97
  18.5230         93
  18.5416         75
  18.5602         79
  18.5788         86
  18.5973         84
  18.6159         72
  18.6345         74
  18.6531         81
  18.6716         89
  18.6902         96
  18.7088         86
  18.7274         96
  18.7459         64
  18.7645         94
  18.7831         73
  18.8017         80
  18.8202         97
  18.8388         58
  18.8574         70
  18.8760         72
  18.8945         82
  18.9131         76
  18.9317         82
  18.9503         66
  18.9689         79
  18.9874         78
  19.0060         87
  19.0246         86
  19.0432        100
  19.0617         90
  19.0803        101
  19.0989         75
  19.1175         83
  19.1360         75
  19.1546         76
  19.1732         78
  19.1918         90
  19.2103         96
  19.2289         85
  19.2475         80
  19.2661         80
  19.2846         83
  19.3032         97
  19.3218         81
  19.3404         82
  19.3589         66
  19.3775         97
  19.3961         74
  19.4147         84
  19.4332         96
  19.4518         89
  19.4704         83
  19.4890        101
  19.5075        101
  19.5261         91
  19.5447         90
  19.5633         78
  19.5818         88
  19.6004         93
  19.6190         98
  19.6376         84
  19.6561         67
  19.6747         77
  19.6933         95
  19.7119         83
  19.7305         85
  19.7490         96
  19.7676         96
  19.7862        101
  19.8048         95
  19.8233         66
  19.8419         86
  19.8605         79
  19.8791         69
  19.8976         96
  19.9162         99
  19.9348         91
  19.9534        102
  19.9719         88
  19.9905         87
  20.0091         88
  20.0277         85
  20.0462         83
  20.0648         83
  20.0834         90
  20.1020        102
  20.1205        101
  20.1391         95
  20.1577         81
  20.1763         84
  20.1948         89
  20.2134         92
  20.2320        101
  20.2506         92
  20.2691         91
  20.2877        104
  20.3063         95
  20.3249         88
  20.3434         81
  20.3620        104
  20.3806         75
  20.3992         75
  20.4177        107
  20.4363         82
  20.4549         81
  20.4735         96
