; (content of file Y:\Sam\Apurva-07-20-2022\puck2\ML_20220720_29_SJD_0_LaB6-1min.raw)
_FILEVERSION = 3
_SAMPLE = ML_20220720_29_SJD_0_LaB6-1min
_+SAMPLE = 
_SITE = USA
_USER = Administrator
_GONIOMETER_CODE = 20
; Goniometer : D8 theta/2theta, stage : Unknown
_ATTACHMENTS_CODE = 0
_GONIOMETER_RADIUS = 200.5
_FIXED_DIVSLIT = 0.6
_FIXED_SAMPLESLIT = 0
_SOLLER_SLITS = 2
_FIXED_DETSLIT = 9.55
_MONOCHROMATOR = 0
; Incident beam monochromator : None
_SOLLER_SLITS_2 = N
_THIN_FILM = N
_BETA_FILTER = Y
_FIXED_ANTISLIT = 5.89
_ANALYZER_CODE = 0
; Received beam analyzer : None
_DATEMEASURED = "25-Jul-2022 18:40:31"
_WL_UNIT = A
_WL1 = 1.5406
_WL2 = 1.54439
_WL3 = 1.39222
_WLRATIO = 0.5
_ANODE = Cu
_V4_INF_CREATOR = XRDWizard
_V4_INF_CREATOR_VERSION = V2.9.0.22
_V4_INF_WIZARD_VERSION = V2.9.0.22
_V4_INF_WIZARD_ADDINS = V2.9.0.22
_V4_INF_WIZARD_DOCTYPE = XRD
_V4_INF_OSUSER = McQueenLab
_V4_INF_USER = Administrator
_V4_INF_SITE = USA
_V4_INF_SAMPLEID = ML_20220720_29_SJD_0_LaB6-1min

; Data for range 1
_DRIVE = COUPLED
_STEPTIME = 4.23
_STEPSIZE = 0.0185756
_STEPMODE = C
_START = 5
_THETA = 2.5
_2THETA = 5
_KHI = 0
_PHI = 0
_X = 0
_Y = 0
_Z = 0
_DETECTOR = 5
; Detector type : Unknown
_DETECTORSLIT = unkn
_AUX1 = 0
_AUX2 = 0
_AUX3 = 0
_TIMESTARTED = 15
_TEMP_RATE = -1
_TEMP_DELAY = -1
_KV = 40
_MA = 40
_RANGE_WL = 1.5406
_3DPLANE = 0
_V4_ADDITIONALDETECTOR = 257
_V4_PSD2THETA = 3.4372
_V4_PSDCHANNEL1 = 0
_V4_PSDAPERTURE = 12.68
_V4_PSDTYPE = 5
_V4_PSDFIXED = 0
_V4_COUNTERS_MASK = 4096
_V4_DRIVES_MASK = 0
_V4_ENCODERS_MASK = 0
_2THETACOUNTS = 1
; 2THETA  PSD
   5.0000        104
   5.0186        102
   5.0372        118
   5.0557        109
   5.0743         91
   5.0929         86
   5.1115         81
   5.1300         93
   5.1486         88
   5.1672         76
   5.1858         79
   5.2043         78
   5.2229         88
   5.2415         82
   5.2601        109
   5.2786         89
   5.2972        104
   5.3158         73
   5.3344        101
   5.3529         94
   5.3715         94
   5.3901         76
   5.4087         87
   5.4272         93
   5.4458         82
   5.4644         90
   5.4830         83
   5.5015         71
   5.5201         89
   5.5387         85
   5.5573         88
   5.5758         85
   5.5944         89
   5.6130         78
   5.6316         76
   5.6501         75
   5.6687         61
   5.6873         88
   5.7059         67
   5.7244         80
   5.7430         71
   5.7616         80
   5.7802         78
   5.7988         81
   5.8173         86
   5.8359         76
   5.8545         89
   5.8731         84
   5.8916         67
   5.9102         82
   5.9288         65
   5.9474         77
   5.9659         64
   5.9845         75
   6.0031         77
   6.0217         75
   6.0402         60
   6.0588         82
   6.0774         75
   6.0960         75
   6.1145         67
   6.1331         72
   6.1517         76
   6.1703         78
   6.1888         70
   6.2074         68
   6.2260         75
   6.2446         55
   6.2631         62
   6.2817         74
   6.3003         80
   6.3189         71
   6.3374         72
   6.3560         82
   6.3746         80
   6.3932         74
   6.4117         55
   6.4303         64
   6.4489         65
   6.4675         80
   6.4860         67
   6.5046         67
   6.5232         71
   6.5418         53
   6.5604         65
   6.5789         55
   6.5975         59
   6.6161         58
   6.6347         59
   6.6532         74
   6.6718         57
   6.6904         54
   6.7090         61
   6.7275         60
   6.7461         68
   6.7647         50
   6.7833         53
   6.8018         58
   6.8204         45
   6.8390         74
   6.8576         57
   6.8761         62
   6.8947         60
   6.9133         63
   6.9319         78
   6.9504         63
   6.9690         57
   6.9876         58
   7.0062         67
   7.0247         54
   7.0433         67
   7.0619         54
   7.0805         54
   7.0990         56
   7.1176         74
   7.1362         57
   7.1548         54
   7.1733         54
   7.1919         58
   7.2105         67
   7.2291         55
   7.2476         53
   7.2662         62
   7.2848         67
   7.3034         49
   7.3220         52
   7.3405         66
   7.3591         54
   7.3777         56
   7.3963         55
   7.4148         52
   7.4334         56
   7.4520         61
   7.4706         72
   7.4891         67
   7.5077         52
   7.5263         59
   7.5449         75
   7.5634         67
   7.5820         57
   7.6006         63
   7.6192         68
   7.6377         72
   7.6563         65
   7.6749         64
   7.6935         69
   7.7120         63
   7.7306         62
   7.7492         61
   7.7678         71
   7.7863         69
   7.8049         63
   7.8235         69
   7.8421         71
   7.8606         65
   7.8792         60
   7.8978         63
   7.9164         61
   7.9349         72
   7.9535         81
   7.9721         67
   7.9907         65
   8.0092         53
   8.0278         75
   8.0464         70
   8.0650         73
   8.0835         55
   8.1021         77
   8.1207         73
   8.1393         72
   8.1579         78
   8.1764         70
   8.1950         71
   8.2136         73
   8.2322         65
   8.2507         83
   8.2693         64
   8.2879         70
   8.3065         63
   8.3250         75
   8.3436         58
   8.3622         67
   8.3808         65
   8.3993         86
   8.4179         66
   8.4365         82
   8.4551         65
   8.4736         74
   8.4922         75
   8.5108         70
   8.5294         86
   8.5479         79
   8.5665         64
   8.5851         57
   8.6037         65
   8.6222         77
   8.6408         76
   8.6594         68
   8.6780         61
   8.6965         83
   8.7151         70
   8.7337         71
   8.7523         64
   8.7708         60
   8.7894         83
   8.8080         73
   8.8266         75
   8.8451         65
   8.8637         66
   8.8823         94
   8.9009         78
   8.9195         73
   8.9380         73
   8.9566         76
   8.9752         69
   8.9938         76
   9.0123         88
   9.0309         75
   9.0495         69
   9.0681         90
   9.0866         81
   9.1052         79
   9.1238         79
   9.1424         74
   9.1609         94
   9.1795         70
   9.1981         80
   9.2167         84
   9.2352         81
   9.2538         82
   9.2724         90
   9.2910         61
   9.3095         82
   9.3281         91
   9.3467         76
   9.3653         66
   9.3838         85
   9.4024         83
   9.4210         79
   9.4396         88
   9.4581         71
   9.4767         73
   9.4953         93
   9.5139         78
   9.5324         81
   9.5510         61
   9.5696         86
   9.5882         82
   9.6067         67
   9.6253         79
   9.6439         85
   9.6625         67
   9.6811         76
   9.6996         74
   9.7182         81
   9.7368         69
   9.7554         80
   9.7739         84
   9.7925         82
   9.8111         89
   9.8297        101
   9.8482         70
   9.8668         69
   9.8854         81
   9.9040         87
   9.9225         87
   9.9411         84
   9.9597         83
   9.9783         95
   9.9968         92
  10.0154         77
  10.0340         91
  10.0526         93
  10.0711         86
  10.0897         89
  10.1083         85
  10.1269         82
  10.1454         95
  10.1640         78
  10.1826         94
  10.2012         91
  10.2197         86
  10.2383         90
  10.2569         84
  10.2755        108
  10.2940         82
  10.3126         78
  10.3312         93
  10.3498         92
  10.3683         88
  10.3869         85
  10.4055        100
  10.4241         92
  10.4427         97
  10.4612         88
  10.4798         82
  10.4984         88
  10.5170         84
  10.5355         87
  10.5541        110
  10.5727         75
  10.5913         83
  10.6098         97
  10.6284         93
  10.6470         87
  10.6656         88
  10.6841        107
  10.7027         97
  10.7213         99
  10.7399         86
  10.7584         94
  10.7770         72
  10.7956         92
  10.8142         91
  10.8327         87
  10.8513         88
  10.8699         86
  10.8885         86
  10.9070         69
  10.9256         84
  10.9442         77
  10.9628         79
  10.9813         84
  10.9999         70
  11.0185         84
  11.0371         76
  11.0556         93
  11.0742         86
  11.0928         90
  11.1114         90
  11.1299         86
  11.1485         83
  11.1671         88
  11.1857         78
  11.2043         72
  11.2228         83
  11.2414         81
  11.2600         96
  11.2786         75
  11.2971         92
  11.3157         87
  11.3343         91
  11.3529         89
  11.3714        108
  11.3900         69
  11.4086         90
  11.4272         81
  11.4457         92
  11.4643        105
  11.4829        109
  11.5015         74
  11.5200         88
  11.5386         84
  11.5572         89
  11.5758         91
  11.5943         70
  11.6129         94
  11.6315        119
  11.6501         75
  11.6686         83
  11.6872         74
  11.7058         87
  11.7244         90
  11.7429         84
  11.7615         72
  11.7801         86
  11.7987         88
  11.8172         97
  11.8358         81
  11.8544         78
  11.8730         83
  11.8915        105
  11.9101         99
  11.9287         96
  11.9473         79
  11.9659         92
  11.9844         93
  12.0030         97
  12.0216         72
  12.0402         85
  12.0587         81
  12.0773         82
  12.0959         82
  12.1145         82
  12.1330         83
  12.1516         84
  12.1702         76
  12.1888         83
  12.2073         72
  12.2259        105
  12.2445         76
  12.2631         98
  12.2816         77
  12.3002         78
  12.3188         78
  12.3374         81
  12.3559         78
  12.3745         92
  12.3931         76
  12.4117         80
  12.4302         77
  12.4488         88
  12.4674         96
  12.4860         86
  12.5045         75
  12.5231         77
  12.5417         78
  12.5603         81
  12.5788         87
  12.5974         77
  12.6160         70
  12.6346         89
  12.6531         85
  12.6717         70
  12.6903         85
  12.7089         91
  12.7274         72
  12.7460         79
  12.7646         68
  12.7832         69
  12.8018         88
  12.8203         63
  12.8389         80
  12.8575         82
  12.8761         85
  12.8946         89
  12.9132         62
  12.9318         76
  12.9504         77
  12.9689         64
  12.9875         93
  13.0061         73
  13.0247         71
  13.0432         73
  13.0618         66
  13.0804         79
  13.0990         73
  13.1175         78
  13.1361         86
  13.1547         78
  13.1733         58
  13.1918         65
  13.2104         71
  13.2290         76
  13.2476         77
  13.2661         72
  13.2847         63
  13.3033         80
  13.3219         76
  13.3404         68
  13.3590         87
  13.3776         67
  13.3962         72
  13.4147         74
  13.4333         69
  13.4519         66
  13.4705         82
  13.4890         73
  13.5076         64
  13.5262         74
  13.5448         74
  13.5634         78
  13.5819         63
  13.6005         59
  13.6191         72
  13.6377         72
  13.6562         89
  13.6748         55
  13.6934         64
  13.7120         70
  13.7305         72
  13.7491         77
  13.7677         74
  13.7863         80
  13.8048         65
  13.8234         84
  13.8420         65
  13.8606         71
  13.8791         67
  13.8977         76
  13.9163         68
  13.9349         58
  13.9534         62
  13.9720         72
  13.9906         66
  14.0092         58
  14.0277         65
  14.0463         47
  14.0649         51
  14.0835         56
  14.1020         71
  14.1206         73
  14.1392         78
  14.1578         64
  14.1763         67
  14.1949         74
  14.2135         47
  14.2321         58
  14.2506         66
  14.2692         69
  14.2878         65
  14.3064         75
  14.3250         64
  14.3435         51
  14.3621         70
  14.3807         64
  14.3993         63
  14.4178         56
  14.4364         58
  14.4550         62
  14.4736         59
  14.4921         71
  14.5107         76
  14.5293         73
  14.5479         58
  14.5664         67
  14.5850         64
  14.6036         59
  14.6222         45
  14.6407         57
  14.6593         60
  14.6779         76
  14.6965         65
  14.7150         49
  14.7336         68
  14.7522         51
  14.7708         59
  14.7893         69
  14.8079         53
  14.8265         77
  14.8451         63
  14.8636         67
  14.8822         58
  14.9008         68
  14.9194         66
  14.9379         69
  14.9565         68
  14.9751         68
  14.9937         67
  15.0122         63
  15.0308         57
  15.0494         52
  15.0680         54
  15.0866         54
  15.1051         70
  15.1237         62
  15.1423         61
  15.1609         64
  15.1794         56
  15.1980         58
  15.2166         61
  15.2352         69
  15.2537         59
  15.2723         58
  15.2909         68
  15.3095         49
  15.3280         58
  15.3466         65
  15.3652         60
  15.3838         62
  15.4023         76
  15.4209         62
  15.4395         60
  15.4581         57
  15.4766         60
  15.4952         48
  15.5138         54
  15.5324         70
  15.5509         59
  15.5695         70
  15.5881         66
  15.6067         80
  15.6252         72
  15.6438         56
  15.6624         65
  15.6810         70
  15.6995         70
  15.7181         62
  15.7367         47
  15.7553         65
  15.7738         47
  15.7924         71
  15.8110         55
  15.8296         58
  15.8482         59
  15.8667         62
  15.8853         69
  15.9039         57
  15.9225         46
  15.9410         51
  15.9596         57
  15.9782         60
  15.9968         65
  16.0153         53
  16.0339         78
  16.0525         65
  16.0711         47
  16.0896         55
  16.1082         54
  16.1268         58
  16.1454         48
  16.1639         64
  16.1825         49
  16.2011         58
  16.2197         75
  16.2382         51
  16.2568         61
  16.2754         61
  16.2940         65
  16.3125         50
  16.3311         61
  16.3497         66
  16.3683         58
  16.3868         66
  16.4054         57
  16.4240         63
  16.4426         50
  16.4611         73
  16.4797         48
  16.4983         48
  16.5169         54
  16.5354         56
  16.5540         69
  16.5726         64
  16.5912         52
  16.6097         55
  16.6283         56
  16.6469         49
  16.6655         45
  16.6841         52
  16.7026         53
  16.7212         61
  16.7398         66
  16.7584         61
  16.7769         46
  16.7955         54
  16.8141         58
  16.8327         70
  16.8512         66
  16.8698         67
  16.8884         65
  16.9070         54
  16.9255         60
  16.9441         43
  16.9627         53
  16.9813         54
  16.9998         64
  17.0184         46
  17.0370         51
  17.0556         60
  17.0741         51
  17.0927         48
  17.1113         70
  17.1299         51
  17.1484         62
  17.1670         60
  17.1856         58
  17.2042         87
  17.2227         56
  17.2413         60
  17.2599         74
  17.2785         57
  17.2970         67
  17.3156         58
  17.3342         69
  17.3528         71
  17.3713         74
  17.3899         48
  17.4085         49
  17.4271         49
  17.4457         65
  17.4642         55
  17.4828         55
  17.5014         58
  17.5200         66
  17.5385         67
  17.5571         46
  17.5757         50
  17.5943         53
  17.6128         36
  17.6314         46
  17.6500         56
  17.6686         65
  17.6871         51
  17.7057         70
  17.7243         63
  17.7429         51
  17.7614         74
  17.7800         59
  17.7986         62
  17.8172         62
  17.8357         60
  17.8543         44
  17.8729         56
  17.8915         64
  17.9100         74
  17.9286         56
  17.9472         63
  17.9658         50
  17.9843         70
  18.0029         56
  18.0215         69
  18.0401         72
  18.0586         60
  18.0772         49
  18.0958         64
  18.1144         62
  18.1329         56
  18.1515         52
  18.1701         68
  18.1887         63
  18.2073         73
  18.2258         67
  18.2444         66
  18.2630         49
  18.2816         57
  18.3001         64
  18.3187         49
  18.3373         67
  18.3559         56
  18.3744         78
  18.3930         59
  18.4116         63
  18.4302         60
  18.4487         72
  18.4673         51
  18.4859         65
  18.5045         51
  18.5230         60
  18.5416         57
  18.5602         63
  18.5788         70
  18.5973         59
  18.6159         59
  18.6345         66
  18.6531         55
  18.6716         67
  18.6902         55
  18.7088         44
  18.7274         61
  18.7459         51
  18.7645         65
  18.7831         64
  18.8017         72
  18.8202         67
  18.8388         73
  18.8574         60
  18.8760         56
  18.8945         72
  18.9131         63
  18.9317         67
  18.9503         62
  18.9689         68
  18.9874         59
  19.0060         70
  19.0246         58
  19.0432         64
  19.0617         62
  19.0803         64
  19.0989         66
  19.1175         48
  19.1360         67
  19.1546         67
  19.1732         65
  19.1918         52
  19.2103         54
  19.2289         65
  19.2475         58
  19.2661         64
  19.2846         62
  19.3032         64
  19.3218         70
  19.3404         63
  19.3589         63
  19.3775         60
  19.3961         69
  19.4147         58
  19.4332         72
  19.4518         88
  19.4704         54
  19.4890         62
  19.5075         58
  19.5261         69
  19.5447         62
  19.5633         59
  19.5818         63
  19.6004         59
  19.6190         69
  19.6376         70
  19.6561         66
  19.6747         78
  19.6933         63
  19.7119         69
  19.7305         75
  19.7490         69
  19.7676         65
  19.7862         67
  19.8048         59
  19.8233         79
  19.8419         67
  19.8605         61
  19.8791         58
  19.8976         69
  19.9162         65
  19.9348         60
  19.9534         59
  19.9719         63
  19.9905         76
  20.0091         78
  20.0277         47
  20.0462         76
  20.0648         67
  20.0834         75
  20.1020         54
  20.1205         75
  20.1391         68
  20.1577         75
  20.1763         71
  20.1948         69
  20.2134         69
  20.2320         73
  20.2506         67
  20.2691         70
  20.2877         54
  20.3063         66
  20.3249         81
  20.3434         64
  20.3620         52
  20.3806         83
  20.3992         57
  20.4177         75
  20.4363         70
  20.4549         85
  20.4735         65
