; (content of file Y:\Sam\Apurva-07-20-2022\puck2\ML_20220720_27_SJD_0_LaB6-1min.raw)
_FILEVERSION = 3
_SAMPLE = ML_20220720_27_SJD_0_LaB6-1min
_+SAMPLE = 
_SITE = USA
_USER = Administrator
_GONIOMETER_CODE = 20
; Goniometer : D8 theta/2theta, stage : Unknown
_ATTACHMENTS_CODE = 0
_GONIOMETER_RADIUS = 200.5
_FIXED_DIVSLIT = 0.6
_FIXED_SAMPLESLIT = 0
_SOLLER_SLITS = 2
_FIXED_DETSLIT = 9.55
_MONOCHROMATOR = 0
; Incident beam monochromator : None
_SOLLER_SLITS_2 = N
_THIN_FILM = N
_BETA_FILTER = Y
_FIXED_ANTISLIT = 5.89
_ANALYZER_CODE = 0
; Received beam analyzer : None
_DATEMEASURED = "25-Jul-2022 18:36:47"
_WL_UNIT = A
_WL1 = 1.5406
_WL2 = 1.54439
_WL3 = 1.39222
_WLRATIO = 0.5
_ANODE = Cu
_V4_INF_CREATOR = XRDWizard
_V4_INF_CREATOR_VERSION = V2.9.0.22
_V4_INF_WIZARD_VERSION = V2.9.0.22
_V4_INF_WIZARD_ADDINS = V2.9.0.22
_V4_INF_WIZARD_DOCTYPE = XRD
_V4_INF_OSUSER = McQueenLab
_V4_INF_USER = Administrator
_V4_INF_SITE = USA
_V4_INF_SAMPLEID = ML_20220720_27_SJD_0_LaB6-1min

; Data for range 1
_DRIVE = COUPLED
_STEPTIME = 4.23
_STEPSIZE = 0.0185756
_STEPMODE = C
_START = 5
_THETA = 2.5
_2THETA = 5
_KHI = 0
_PHI = 0
_X = 0
_Y = 0
_Z = 0
_DETECTOR = 5
; Detector type : Unknown
_DETECTORSLIT = unkn
_AUX1 = 0
_AUX2 = 0
_AUX3 = 0
_TIMESTARTED = 16
_TEMP_RATE = -1
_TEMP_DELAY = -1
_KV = 40
_MA = 40
_RANGE_WL = 1.5406
_3DPLANE = 0
_V4_ADDITIONALDETECTOR = 257
_V4_PSD2THETA = 3.4374
_V4_PSDCHANNEL1 = 0
_V4_PSDAPERTURE = 12.68
_V4_PSDTYPE = 5
_V4_PSDFIXED = 0
_V4_COUNTERS_MASK = 4096
_V4_DRIVES_MASK = 0
_V4_ENCODERS_MASK = 0
_2THETACOUNTS = 1
; 2THETA  PSD
   5.0000         75
   5.0186        102
   5.0372        104
   5.0557        100
   5.0743         92
   5.0929         82
   5.1115         99
   5.1300        100
   5.1486         88
   5.1672         97
   5.1858         87
   5.2043         88
   5.2229         94
   5.2415         76
   5.2601         96
   5.2786         99
   5.2972        100
   5.3158        113
   5.3344         78
   5.3529         96
   5.3715         76
   5.3901         85
   5.4087         86
   5.4272        106
   5.4458         73
   5.4644         91
   5.4830         87
   5.5015         82
   5.5201         90
   5.5387         69
   5.5573         87
   5.5758         90
   5.5944         94
   5.6130         71
   5.6316         96
   5.6501         85
   5.6687         91
   5.6873         80
   5.7059         74
   5.7244         78
   5.7430         77
   5.7616         78
   5.7802         68
   5.7988         73
   5.8173         78
   5.8359         77
   5.8545         71
   5.8731         68
   5.8916         73
   5.9102         68
   5.9288         80
   5.9474         59
   5.9659         80
   5.9845         67
   6.0031         81
   6.0217         64
   6.0402         68
   6.0588         89
   6.0774         87
   6.0960         76
   6.1145         65
   6.1331         62
   6.1517         82
   6.1703         89
   6.1888         59
   6.2074         76
   6.2260         73
   6.2446         90
   6.2631         68
   6.2817         71
   6.3003         74
   6.3189         65
   6.3374         68
   6.3560         60
   6.3746         78
   6.3932         82
   6.4117         76
   6.4303         64
   6.4489         67
   6.4675         74
   6.4860         63
   6.5046         66
   6.5232         88
   6.5418         64
   6.5604         62
   6.5789         68
   6.5975         60
   6.6161         58
   6.6347         60
   6.6532         56
   6.6718         53
   6.6904         56
   6.7090         55
   6.7275         65
   6.7461         72
   6.7647         48
   6.7833         72
   6.8018         70
   6.8204         61
   6.8390         69
   6.8576         64
   6.8761         66
   6.8947         55
   6.9133         51
   6.9319         68
   6.9504         49
   6.9690         53
   6.9876         61
   7.0062         52
   7.0247         60
   7.0433         60
   7.0619         55
   7.0805         64
   7.0990         57
   7.1176         45
   7.1362         56
   7.1548         70
   7.1733         61
   7.1919         60
   7.2105         68
   7.2291         56
   7.2476         64
   7.2662         63
   7.2848         57
   7.3034         64
   7.3220         63
   7.3405         52
   7.3591         56
   7.3777         49
   7.3963         54
   7.4148         55
   7.4334         52
   7.4520         65
   7.4706         66
   7.4891         48
   7.5077         57
   7.5263         55
   7.5449         59
   7.5634         63
   7.5820         64
   7.6006         60
   7.6192         39
   7.6377         69
   7.6563         76
   7.6749         73
   7.6935         58
   7.7120         73
   7.7306         50
   7.7492         65
   7.7678         79
   7.7863         67
   7.8049         72
   7.8235         84
   7.8421         59
   7.8606         62
   7.8792         60
   7.8978         65
   7.9164         80
   7.9349         61
   7.9535         87
   7.9721         82
   7.9907         66
   8.0092         70
   8.0278         69
   8.0464         71
   8.0650         60
   8.0835         69
   8.1021         52
   8.1207         82
   8.1393         74
   8.1579         67
   8.1764         72
   8.1950         80
   8.2136         66
   8.2322         70
   8.2507         62
   8.2693         74
   8.2879         64
   8.3065         85
   8.3250         59
   8.3436         66
   8.3622         81
   8.3808         83
   8.3993         81
   8.4179         76
   8.4365         71
   8.4551         94
   8.4736         72
   8.4922         79
   8.5108         71
   8.5294         63
   8.5479         75
   8.5665         64
   8.5851         79
   8.6037         85
   8.6222         73
   8.6408         78
   8.6594         74
   8.6780         75
   8.6965         77
   8.7151         68
   8.7337         79
   8.7523         92
   8.7708         75
   8.7894         84
   8.8080         90
   8.8266         79
   8.8451         79
   8.8637         81
   8.8823         76
   8.9009         80
   8.9195         75
   8.9380         69
   8.9566         59
   8.9752         59
   8.9938         89
   9.0123         78
   9.0309         82
   9.0495         76
   9.0681         77
   9.0866         86
   9.1052         80
   9.1238         80
   9.1424         79
   9.1609         73
   9.1795         81
   9.1981         61
   9.2167         68
   9.2352         95
   9.2538         84
   9.2724         91
   9.2910         75
   9.3095         95
   9.3281         96
   9.3467         88
   9.3653         86
   9.3838         88
   9.4024         76
   9.4210         98
   9.4396         94
   9.4581        109
   9.4767         67
   9.4953         73
   9.5139         76
   9.5324         90
   9.5510         81
   9.5696         71
   9.5882         73
   9.6067         83
   9.6253         86
   9.6439         77
   9.6625         74
   9.6811         76
   9.6996         85
   9.7182         81
   9.7368         87
   9.7554         86
   9.7739        103
   9.7925         69
   9.8111         84
   9.8297         95
   9.8482         90
   9.8668         94
   9.8854         98
   9.9040         88
   9.9225         99
   9.9411         91
   9.9597         89
   9.9783         79
   9.9968         71
  10.0154         97
  10.0340         88
  10.0526         88
  10.0711         90
  10.0897         80
  10.1083         99
  10.1269         82
  10.1454         77
  10.1640         91
  10.1826         91
  10.2012         96
  10.2197         91
  10.2383         79
  10.2569         90
  10.2755         81
  10.2940        100
  10.3126         92
  10.3312         96
  10.3498         82
  10.3683         89
  10.3869         74
  10.4055         83
  10.4241         83
  10.4427         87
  10.4612        100
  10.4798         76
  10.4984         80
  10.5170         86
  10.5355         88
  10.5541        100
  10.5727         81
  10.5913         83
  10.6098         99
  10.6284         92
  10.6470         87
  10.6656         83
  10.6841         91
  10.7027         92
  10.7213         84
  10.7399         92
  10.7584         95
  10.7770         77
  10.7956         97
  10.8142         90
  10.8327         91
  10.8513         95
  10.8699         92
  10.8885         84
  10.9070         89
  10.9256         93
  10.9442         75
  10.9628         86
  10.9813         79
  10.9999         82
  11.0185         86
  11.0371         89
  11.0556         87
  11.0742         89
  11.0928         85
  11.1114         84
  11.1299         79
  11.1485         87
  11.1671         82
  11.1857         91
  11.2043         88
  11.2228         82
  11.2414        101
  11.2600         92
  11.2786         90
  11.2971         90
  11.3157         84
  11.3343         74
  11.3529         85
  11.3714         97
  11.3900         73
  11.4086         87
  11.4272         91
  11.4457         88
  11.4643         92
  11.4829         86
  11.5015         79
  11.5200         78
  11.5386        101
  11.5572         78
  11.5758        108
  11.5943         91
  11.6129         92
  11.6315         96
  11.6501         94
  11.6686         94
  11.6872         98
  11.7058         97
  11.7244         76
  11.7429         98
  11.7615         79
  11.7801        100
  11.7987         82
  11.8172         87
  11.8358         89
  11.8544         97
  11.8730         77
  11.8915         86
  11.9101         85
  11.9287         68
  11.9473         75
  11.9659         85
  11.9844         98
  12.0030         80
  12.0216         75
  12.0402         88
  12.0587         92
  12.0773         60
  12.0959         93
  12.1145         70
  12.1330         82
  12.1516         77
  12.1702         85
  12.1888         79
  12.2073         76
  12.2259         83
  12.2445         75
  12.2631         81
  12.2816         86
  12.3002         78
  12.3188         90
  12.3374         92
  12.3559         67
  12.3745         92
  12.3931         94
  12.4117         80
  12.4302         76
  12.4488         71
  12.4674         74
  12.4860         80
  12.5045         80
  12.5231         74
  12.5417         82
  12.5603         90
  12.5788         75
  12.5974         71
  12.6160         74
  12.6346         80
  12.6531         67
  12.6717         91
  12.6903         84
  12.7089         86
  12.7274         67
  12.7460         75
  12.7646         71
  12.7832         64
  12.8018         79
  12.8203         61
  12.8389         90
  12.8575         72
  12.8761         67
  12.8946         81
  12.9132         77
  12.9318         61
  12.9504         89
  12.9689         68
  12.9875         73
  13.0061         67
  13.0247         65
  13.0432         72
  13.0618         61
  13.0804         78
  13.0990         82
  13.1175         70
  13.1361         75
  13.1547         67
  13.1733         62
  13.1918         76
  13.2104         93
  13.2290         71
  13.2476         73
  13.2661         69
  13.2847         72
  13.3033         88
  13.3219         69
  13.3404         76
  13.3590         85
  13.3776         69
  13.3962         67
  13.4147         71
  13.4333         69
  13.4519         60
  13.4705         79
  13.4890         71
  13.5076         65
  13.5262         78
  13.5448         82
  13.5634         54
  13.5819         68
  13.6005         64
  13.6191         83
  13.6377         73
  13.6562         66
  13.6748         66
  13.6934         62
  13.7120         77
  13.7305         70
  13.7491         75
  13.7677         56
  13.7863         69
  13.8048         65
  13.8234         74
  13.8420         68
  13.8606         58
  13.8791         67
  13.8977         64
  13.9163         65
  13.9349         70
  13.9534         73
  13.9720         71
  13.9906         63
  14.0092         65
  14.0277         52
  14.0463         74
  14.0649         59
  14.0835         74
  14.1020         61
  14.1206         66
  14.1392         69
  14.1578         55
  14.1763         65
  14.1949         73
  14.2135         64
  14.2321         70
  14.2506         65
  14.2692         54
  14.2878         76
  14.3064         74
  14.3250         68
  14.3435         70
  14.3621         64
  14.3807         55
  14.3993         67
  14.4178         64
  14.4364         69
  14.4550         56
  14.4736         65
  14.4921         60
  14.5107         62
  14.5293         61
  14.5479         73
  14.5664         78
  14.5850         60
  14.6036         74
  14.6222         66
  14.6407         58
  14.6593         50
  14.6779         70
  14.6965         50
  14.7150         57
  14.7336         67
  14.7522         55
  14.7708         58
  14.7893         67
  14.8079         56
  14.8265         73
  14.8451         69
  14.8636         54
  14.8822         51
  14.9008         83
  14.9194         51
  14.9379         76
  14.9565         69
  14.9751         49
  14.9937         63
  15.0122         63
  15.0308         56
  15.0494         59
  15.0680         53
  15.0866         53
  15.1051         59
  15.1237         57
  15.1423         85
  15.1609         67
  15.1794         51
  15.1980         63
  15.2166         70
  15.2352         57
  15.2537         50
  15.2723         64
  15.2909         51
  15.3095         77
  15.3280         67
  15.3466         73
  15.3652         77
  15.3838         58
  15.4023         62
  15.4209         61
  15.4395         67
  15.4581         49
  15.4766         74
  15.4952         54
  15.5138         56
  15.5324         66
  15.5509         60
  15.5695         69
  15.5881         55
  15.6067         68
  15.6252         51
  15.6438         59
  15.6624         49
  15.6810         55
  15.6995         64
  15.7181         60
  15.7367         51
  15.7553         53
  15.7738         64
  15.7924         57
  15.8110         55
  15.8296         63
  15.8482         51
  15.8667         64
  15.8853         59
  15.9039         48
  15.9225         69
  15.9410         61
  15.9596         73
  15.9782         59
  15.9968         57
  16.0153         49
  16.0339         53
  16.0525         63
  16.0711         69
  16.0896         59
  16.1082         62
  16.1268         72
  16.1454         67
  16.1639         53
  16.1825         60
  16.2011         63
  16.2197         62
  16.2382         67
  16.2568         58
  16.2754         65
  16.2940         60
  16.3125         62
  16.3311         62
  16.3497         53
  16.3683         54
  16.3868         70
  16.4054         53
  16.4240         54
  16.4426         54
  16.4611         54
  16.4797         61
  16.4983         62
  16.5169         60
  16.5354         61
  16.5540         46
  16.5726         46
  16.5912         57
  16.6097         53
  16.6283         57
  16.6469         69
  16.6655         47
  16.6841         64
  16.7026         49
  16.7212         66
  16.7398         63
  16.7584         57
  16.7769         49
  16.7955         57
  16.8141         50
  16.8327         53
  16.8512         50
  16.8698         58
  16.8884         52
  16.9070         47
  16.9255         71
  16.9441         69
  16.9627         57
  16.9813         62
  16.9998         53
  17.0184         54
  17.0370         64
  17.0556         69
  17.0741         73
  17.0927         43
  17.1113         59
  17.1299         59
  17.1484         64
  17.1670         59
  17.1856         54
  17.2042         60
  17.2227         45
  17.2413         51
  17.2599         52
  17.2785         46
  17.2970         66
  17.3156         53
  17.3342         64
  17.3528         64
  17.3713         63
  17.3899         55
  17.4085         50
  17.4271         66
  17.4457         54
  17.4642         67
  17.4828         71
  17.5014         59
  17.5200         60
  17.5385         41
  17.5571         66
  17.5757         72
  17.5943         76
  17.6128         69
  17.6314         70
  17.6500         54
  17.6686         53
  17.6871         52
  17.7057         61
  17.7243         66
  17.7429         54
  17.7614         77
  17.7800         69
  17.7986         56
  17.8172         53
  17.8357         59
  17.8543         60
  17.8729         62
  17.8915         63
  17.9100         50
  17.9286         52
  17.9472         53
  17.9658         71
  17.9843         73
  18.0029         67
  18.0215         59
  18.0401         65
  18.0586         57
  18.0772         57
  18.0958         57
  18.1144         45
  18.1329         58
  18.1515         59
  18.1701         65
  18.1887         72
  18.2073         61
  18.2258         70
  18.2444         52
  18.2630         53
  18.2816         49
  18.3001         68
  18.3187         62
  18.3373         63
  18.3559         58
  18.3744         57
  18.3930         56
  18.4116         54
  18.4302         70
  18.4487         53
  18.4673         68
  18.4859         82
  18.5045         65
  18.5230         53
  18.5416         66
  18.5602         57
  18.5788         58
  18.5973         62
  18.6159         49
  18.6345         54
  18.6531         70
  18.6716         50
  18.6902         51
  18.7088         60
  18.7274         57
  18.7459         78
  18.7645         67
  18.7831         59
  18.8017         67
  18.8202         70
  18.8388         63
  18.8574         61
  18.8760         72
  18.8945         63
  18.9131         70
  18.9317         53
  18.9503         67
  18.9689         63
  18.9874         57
  19.0060         64
  19.0246         66
  19.0432         47
  19.0617         65
  19.0803         62
  19.0989         69
  19.1175         75
  19.1360         77
  19.1546         63
  19.1732         60
  19.1918         65
  19.2103         66
  19.2289         50
  19.2475         70
  19.2661         53
  19.2846         64
  19.3032         63
  19.3218         64
  19.3404         60
  19.3589         79
  19.3775         66
  19.3961         59
  19.4147         66
  19.4332         65
  19.4518         55
  19.4704         82
  19.4890         50
  19.5075         61
  19.5261         64
  19.5447         61
  19.5633         70
  19.5818         60
  19.6004         62
  19.6190         66
  19.6376         60
  19.6561         65
  19.6747         65
  19.6933         71
  19.7119         62
  19.7305         71
  19.7490         66
  19.7676         72
  19.7862         60
  19.8048         59
  19.8233         66
  19.8419         70
  19.8605         45
  19.8791         63
  19.8976         79
  19.9162         66
  19.9348         63
  19.9534         77
  19.9719         60
  19.9905         66
  20.0091         77
  20.0277         73
  20.0462         61
  20.0648         78
  20.0834         73
  20.1020         68
  20.1205         70
  20.1391         69
  20.1577         67
  20.1763         59
  20.1948         72
  20.2134         51
  20.2320         72
  20.2506         65
  20.2691         68
  20.2877         58
  20.3063         58
  20.3249         63
  20.3434         56
  20.3620         68
  20.3806         64
  20.3992         66
  20.4177         56
  20.4363         81
  20.4549         63
  20.4735         74
