; (content of file Y:\Sam\Apurva-07-20-2022\puck4\ML_20220718_46_SJD_4_LaB6-2min.raw)
_FILEVERSION = 3
_SAMPLE = ML_20220718_46_SJD_4_LaB6-2min
_+SAMPLE = 
_SITE = USA
_USER = Administrator
_GONIOMETER_CODE = 20
; Goniometer : D8 theta/2theta, stage : Unknown
_ATTACHMENTS_CODE = 0
_GONIOMETER_RADIUS = 200.5
_FIXED_DIVSLIT = 0.6
_FIXED_SAMPLESLIT = 0
_SOLLER_SLITS = 2
_FIXED_DETSLIT = 9.55
_MONOCHROMATOR = 0
; Incident beam monochromator : None
_SOLLER_SLITS_2 = N
_THIN_FILM = N
_BETA_FILTER = Y
_FIXED_ANTISLIT = 5.89
_ANALYZER_CODE = 0
; Received beam analyzer : None
_DATEMEASURED = "26-Jul-2022 12:18:04"
_WL_UNIT = A
_WL1 = 1.5406
_WL2 = 1.54439
_WL3 = 1.39222
_WLRATIO = 0.5
_ANODE = Cu
_V4_INF_CREATOR = XRDWizard
_V4_INF_CREATOR_VERSION = V2.9.0.22
_V4_INF_WIZARD_VERSION = V2.9.0.22
_V4_INF_WIZARD_ADDINS = V2.9.0.22
_V4_INF_WIZARD_DOCTYPE = XRD
_V4_INF_OSUSER = McQueenLab
_V4_INF_USER = Administrator
_V4_INF_SITE = USA
_V4_INF_SAMPLEID = ML_20220718_46_SJD_4_LaB6-2min

; Data for range 1
_DRIVE = COUPLED
_STEPTIME = 5.64
_STEPSIZE = 0.0185756
_STEPMODE = C
_START = 5
_THETA = 2.5
_2THETA = 5
_KHI = 0
_PHI = 0
_X = 0
_Y = 0
_Z = 0
_DETECTOR = 5
; Detector type : Unknown
_DETECTORSLIT = unkn
_AUX1 = 0
_AUX2 = 0
_AUX3 = 0
_TIMESTARTED = 15
_TEMP_RATE = -1
_TEMP_DELAY = -1
_KV = 40
_MA = 40
_RANGE_WL = 1.5406
_3DPLANE = 0
_V4_ADDITIONALDETECTOR = 257
_V4_PSD2THETA = 3.3706
_V4_PSDCHANNEL1 = 0
_V4_PSDAPERTURE = 12.68
_V4_PSDTYPE = 5
_V4_PSDFIXED = 0
_V4_COUNTERS_MASK = 4096
_V4_DRIVES_MASK = 0
_V4_ENCODERS_MASK = 0
_2THETACOUNTS = 1
; 2THETA  PSD
   5.0000        126
   5.0186        126
   5.0372        130
   5.0557        134
   5.0743        144
   5.0929        123
   5.1115        111
   5.1300        155
   5.1486        124
   5.1672        123
   5.1858        104
   5.2043        128
   5.2229        144
   5.2415        127
   5.2601        122
   5.2786        143
   5.2972        117
   5.3158        134
   5.3344        109
   5.3529        102
   5.3715         82
   5.3901        115
   5.4087        119
   5.4272        104
   5.4458        108
   5.4644        137
   5.4830        131
   5.5015         98
   5.5201        108
   5.5387        106
   5.5573        125
   5.5758        108
   5.5944        102
   5.6130        110
   5.6316         96
   5.6501         89
   5.6687        108
   5.6873        123
   5.7059        101
   5.7244         88
   5.7430         97
   5.7616         90
   5.7802         94
   5.7988        104
   5.8173        127
   5.8359         99
   5.8545         95
   5.8731         97
   5.8916         97
   5.9102        106
   5.9288         69
   5.9474        120
   5.9659        107
   5.9845         88
   6.0031         99
   6.0217        108
   6.0402         94
   6.0588         92
   6.0774         96
   6.0960         96
   6.1145         88
   6.1331         84
   6.1517        100
   6.1703        100
   6.1888         92
   6.2074         91
   6.2260         98
   6.2446         83
   6.2631         86
   6.2817        101
   6.3003         87
   6.3189        101
   6.3374         85
   6.3560         73
   6.3746         92
   6.3932         92
   6.4117         87
   6.4303         93
   6.4489         94
   6.4675        102
   6.4860         96
   6.5046         88
   6.5232         72
   6.5418         90
   6.5604         83
   6.5789         72
   6.5975         89
   6.6161         87
   6.6347         81
   6.6532         87
   6.6718         83
   6.6904         89
   6.7090         77
   6.7275         96
   6.7461         90
   6.7647         87
   6.7833         90
   6.8018         85
   6.8204         88
   6.8390         67
   6.8576         92
   6.8761         74
   6.8947         72
   6.9133         70
   6.9319         85
   6.9504         59
   6.9690         71
   6.9876         77
   7.0062         82
   7.0247         72
   7.0433         76
   7.0619         70
   7.0805         86
   7.0990         80
   7.1176         67
   7.1362         63
   7.1548         70
   7.1733         68
   7.1919         81
   7.2105         83
   7.2291         72
   7.2476         72
   7.2662         75
   7.2848         89
   7.3034         59
   7.3220         79
   7.3405         85
   7.3591         73
   7.3777         77
   7.3963         72
   7.4148         74
   7.4334         69
   7.4520         84
   7.4706         96
   7.4891         91
   7.5077         74
   7.5263         81
   7.5449         78
   7.5634         79
   7.5820        116
   7.6006         68
   7.6192         98
   7.6377         93
   7.6563         83
   7.6749         76
   7.6935         83
   7.7120         92
   7.7306         80
   7.7492         74
   7.7678         87
   7.7863         90
   7.8049         92
   7.8235         95
   7.8421         92
   7.8606         63
   7.8792         91
   7.8978         86
   7.9164         76
   7.9349         99
   7.9535        108
   7.9721         95
   7.9907        107
   8.0092        105
   8.0278         94
   8.0464         76
   8.0650         93
   8.0835         91
   8.1021         94
   8.1207         95
   8.1393         93
   8.1579        101
   8.1764         97
   8.1950        101
   8.2136         94
   8.2322        113
   8.2507         94
   8.2693        100
   8.2879        100
   8.3065         83
   8.3250         80
   8.3436         93
   8.3622         92
   8.3808         94
   8.3993        118
   8.4179        119
   8.4365        109
   8.4551         98
   8.4736         92
   8.4922         92
   8.5108        103
   8.5294         94
   8.5479         85
   8.5665        105
   8.5851         91
   8.6037        103
   8.6222         97
   8.6408         97
   8.6594         90
   8.6780         88
   8.6965        124
   8.7151         97
   8.7337        107
   8.7523         93
   8.7708        105
   8.7894        107
   8.8080        100
   8.8266        100
   8.8451        100
   8.8637        121
   8.8823        100
   8.9009        120
   8.9195        108
   8.9380        117
   8.9566        100
   8.9752        107
   8.9938        112
   9.0123        108
   9.0309         98
   9.0495        113
   9.0681        115
   9.0866        108
   9.1052        107
   9.1238         98
   9.1424         98
   9.1609         98
   9.1795        104
   9.1981        124
   9.2167        123
   9.2352         99
   9.2538        103
   9.2724        102
   9.2910         97
   9.3095        111
   9.3281        112
   9.3467        114
   9.3653        115
   9.3838        107
   9.4024        125
   9.4210        123
   9.4396         91
   9.4581         94
   9.4767         99
   9.4953        113
   9.5139        113
   9.5324        115
   9.5510         98
   9.5696        107
   9.5882        126
   9.6067        107
   9.6253        107
   9.6439        108
   9.6625        119
   9.6811        130
   9.6996        116
   9.7182         92
   9.7368        125
   9.7554        102
   9.7739         95
   9.7925        126
   9.8111        107
   9.8297        118
   9.8482        122
   9.8668         92
   9.8854        112
   9.9040        130
   9.9225        120
   9.9411        107
   9.9597        104
   9.9783        100
   9.9968        121
  10.0154        132
  10.0340        108
  10.0526        122
  10.0711        111
  10.0897        124
  10.1083        115
  10.1269         82
  10.1454        140
  10.1640        115
  10.1826        106
  10.2012        113
  10.2197        102
  10.2383        140
  10.2569        126
  10.2755        103
  10.2940        115
  10.3126        127
  10.3312        139
  10.3498        111
  10.3683        101
  10.3869        122
  10.4055        139
  10.4241        130
  10.4427        111
  10.4612        121
  10.4798        122
  10.4984        110
  10.5170        110
  10.5355        106
  10.5541        127
  10.5727        114
  10.5913        107
  10.6098        126
  10.6284        107
  10.6470        124
  10.6656         91
  10.6841        108
  10.7027        137
  10.7213        109
  10.7399        121
  10.7584        127
  10.7770        128
  10.7956        114
  10.8142        110
  10.8327        117
  10.8513        129
  10.8699        143
  10.8885        101
  10.9070        113
  10.9256        136
  10.9442        126
  10.9628        117
  10.9813         96
  10.9999        133
  11.0185        121
  11.0371        122
  11.0556        122
  11.0742        116
  11.0928        111
  11.1114        112
  11.1299         97
  11.1485        117
  11.1671        118
  11.1857        123
  11.2043        131
  11.2228        122
  11.2414        119
  11.2600        106
  11.2786        115
  11.2971        110
  11.3157        127
  11.3343         84
  11.3529        122
  11.3714        124
  11.3900        107
  11.4086        123
  11.4272        126
  11.4457         89
  11.4643        109
  11.4829        101
  11.5015        128
  11.5200         94
  11.5386        126
  11.5572        124
  11.5758        100
  11.5943        137
  11.6129        104
  11.6315        142
  11.6501        114
  11.6686        110
  11.6872        103
  11.7058        110
  11.7244        110
  11.7429         99
  11.7615        121
  11.7801        107
  11.7987         97
  11.8172        105
  11.8358        127
  11.8544        125
  11.8730        124
  11.8915        109
  11.9101        112
  11.9287         95
  11.9473        125
  11.9659         96
  11.9844        114
  12.0030        106
  12.0216        102
  12.0402        120
  12.0587        115
  12.0773        102
  12.0959        104
  12.1145         85
  12.1330        118
  12.1516         96
  12.1702        125
  12.1888        101
  12.2073         96
  12.2259         90
  12.2445        104
  12.2631        115
  12.2816        100
  12.3002        109
  12.3188        102
  12.3374        107
  12.3559        112
  12.3745        115
  12.3931        127
  12.4117        108
  12.4302        122
  12.4488        115
  12.4674        113
  12.4860         91
  12.5045        106
  12.5231        115
  12.5417         93
  12.5603        134
  12.5788        112
  12.5974        117
  12.6160        101
  12.6346        106
  12.6531        110
  12.6717        100
  12.6903        108
  12.7089        100
  12.7274        120
  12.7460        108
  12.7646         94
  12.7832        107
  12.8018        104
  12.8203         94
  12.8389        111
  12.8575         93
  12.8761        110
  12.8946        118
  12.9132         91
  12.9318        103
  12.9504        103
  12.9689         97
  12.9875        103
  13.0061        101
  13.0247        113
  13.0432        108
  13.0618         97
  13.0804         95
  13.0990        112
  13.1175         78
  13.1361         90
  13.1547         88
  13.1733        118
  13.1918         98
  13.2104        118
  13.2290        103
  13.2476         98
  13.2661        105
  13.2847        103
  13.3033         80
  13.3219        112
  13.3404        100
  13.3590        121
  13.3776        100
  13.3962         87
  13.4147        103
  13.4333        102
  13.4519         85
  13.4705         99
  13.4890        100
  13.5076        116
  13.5262         89
  13.5448         96
  13.5634        102
  13.5819        106
  13.6005        102
  13.6191         91
  13.6377         88
  13.6562         94
  13.6748         89
  13.6934         89
  13.7120        103
  13.7305         96
  13.7491         91
  13.7677        106
  13.7863         98
  13.8048         82
  13.8234         96
  13.8420        107
  13.8606         99
  13.8791         90
  13.8977         92
  13.9163         90
  13.9349         92
  13.9534         79
  13.9720         95
  13.9906         79
  14.0092         88
  14.0277        104
  14.0463         79
  14.0649         88
  14.0835         87
  14.1020         80
  14.1206         91
  14.1392        116
  14.1578        101
  14.1763         98
  14.1949         92
  14.2135         98
  14.2321         84
  14.2506         88
  14.2692         86
  14.2878         82
  14.3064         79
  14.3250         83
  14.3435         87
  14.3621         82
  14.3807         96
  14.3993         98
  14.4178         87
  14.4364         89
  14.4550         70
  14.4736         85
  14.4921         81
  14.5107         87
  14.5293         96
  14.5479         87
  14.5664         77
  14.5850         84
  14.6036         85
  14.6222        103
  14.6407         73
  14.6593         93
  14.6779         75
  14.6965         80
  14.7150         88
  14.7336         89
  14.7522         84
  14.7708         70
  14.7893         71
  14.8079         77
  14.8265         91
  14.8451         73
  14.8636         85
  14.8822         76
  14.9008         81
  14.9194         87
  14.9379         72
  14.9565         86
  14.9751         63
  14.9937         94
  15.0122         83
  15.0308         94
  15.0494         70
  15.0680         75
  15.0866         94
  15.1051         82
  15.1237         78
  15.1423         77
  15.1609         84
  15.1794         77
  15.1980         79
  15.2166         85
  15.2352         86
  15.2537         68
  15.2723         69
  15.2909         67
  15.3095         80
  15.3280         84
  15.3466         85
  15.3652         80
  15.3838         86
  15.4023         81
  15.4209         93
  15.4395         80
  15.4581         89
  15.4766         73
  15.4952         87
  15.5138         84
  15.5324         78
  15.5509         85
  15.5695         72
  15.5881         56
  15.6067         93
  15.6252         76
  15.6438         87
  15.6624         79
  15.6810         73
  15.6995         61
  15.7181         75
  15.7367         92
  15.7553         89
  15.7738         76
  15.7924         82
  15.8110         74
  15.8296         75
  15.8482         94
  15.8667         80
  15.8853         83
  15.9039         90
  15.9225         84
  15.9410         73
  15.9596         67
  15.9782         81
  15.9968         78
  16.0153         90
  16.0339         78
  16.0525         86
  16.0711         67
  16.0896         82
  16.1082         70
  16.1268         94
  16.1454         69
  16.1639         85
  16.1825         86
  16.2011         83
  16.2197         81
  16.2382         76
  16.2568         80
  16.2754         80
  16.2940         76
  16.3125         77
  16.3311         90
  16.3497         79
  16.3683         74
  16.3868         65
  16.4054         81
  16.4240         81
  16.4426         54
  16.4611         78
  16.4797         89
  16.4983         72
  16.5169         86
  16.5354         81
  16.5540         80
  16.5726         86
  16.5912         73
  16.6097         97
  16.6283         88
  16.6469         68
  16.6655         88
  16.6841         81
  16.7026         92
  16.7212         91
  16.7398         77
  16.7584         63
  16.7769         94
  16.7955         74
  16.8141         91
  16.8327         84
  16.8512         90
  16.8698         68
  16.8884         88
  16.9070         75
  16.9255         62
  16.9441         73
  16.9627         78
  16.9813         76
  16.9998         97
  17.0184         71
  17.0370         95
  17.0556         80
  17.0741         75
  17.0927         88
  17.1113         93
  17.1299         97
  17.1484         72
  17.1670         71
  17.1856         87
  17.2042         74
  17.2227         96
  17.2413         80
  17.2599         65
  17.2785         87
  17.2970         72
  17.3156         82
  17.3342         97
  17.3528         74
  17.3713         83
  17.3899         85
  17.4085         85
  17.4271         86
  17.4457         92
  17.4642         75
  17.4828         67
  17.5014         72
  17.5200         85
  17.5385         73
  17.5571         79
  17.5757         76
  17.5943         88
  17.6128         78
  17.6314         96
  17.6500         99
  17.6686         72
  17.6871         73
  17.7057         89
  17.7243         83
  17.7429         84
  17.7614         87
  17.7800         61
  17.7986         85
  17.8172         78
  17.8357         77
  17.8543         97
  17.8729         78
  17.8915        101
  17.9100         73
  17.9286         73
  17.9472         73
  17.9658         84
  17.9843         81
  18.0029         89
  18.0215         86
  18.0401         86
  18.0586         70
  18.0772         67
  18.0958         85
  18.1144         82
  18.1329         89
  18.1515         91
  18.1701         81
  18.1887         79
  18.2073         63
  18.2258         83
  18.2444         73
  18.2630         73
  18.2816         93
  18.3001         65
  18.3187         84
  18.3373         78
  18.3559         83
  18.3744         90
  18.3930         68
  18.4116         80
  18.4302         94
  18.4487         76
  18.4673         70
  18.4859         68
  18.5045         88
  18.5230         95
  18.5416         93
  18.5602        112
  18.5788         87
  18.5973         84
  18.6159         82
  18.6345         79
  18.6531         78
  18.6716         82
  18.6902         77
  18.7088         77
  18.7274         84
  18.7459         87
  18.7645         93
  18.7831         81
  18.8017         82
  18.8202         95
  18.8388         72
  18.8574         63
  18.8760         77
  18.8945         75
  18.9131         81
  18.9317         88
  18.9503         87
  18.9689         90
  18.9874        100
  19.0060         88
  19.0246         92
  19.0432         86
  19.0617         95
  19.0803         82
  19.0989        100
  19.1175         92
  19.1360         78
  19.1546         86
  19.1732         91
  19.1918         88
  19.2103         91
  19.2289         90
  19.2475         81
  19.2661         90
  19.2846         92
  19.3032         80
  19.3218         81
  19.3404        103
  19.3589         95
  19.3775        104
  19.3961         77
  19.4147         82
  19.4332         80
  19.4518         84
  19.4704         92
  19.4890         93
  19.5075         98
  19.5261         84
  19.5447         90
  19.5633         98
  19.5818         76
  19.6004         78
  19.6190         81
  19.6376         92
  19.6561         98
  19.6747        105
  19.6933         87
  19.7119         99
  19.7305         78
  19.7490         77
  19.7676         82
  19.7862         83
  19.8048         81
  19.8233         90
  19.8419         73
  19.8605         77
  19.8791         86
  19.8976         88
  19.9162         96
  19.9348         91
  19.9534         88
  19.9719        101
  19.9905         72
  20.0091         96
  20.0277         83
  20.0462         86
  20.0648        101
  20.0834         81
  20.1020         88
  20.1205         84
  20.1391         93
  20.1577         83
  20.1763         98
  20.1948        111
  20.2134         81
  20.2320         97
  20.2506         84
  20.2691        113
  20.2877         86
  20.3063         84
  20.3249        117
  20.3434        108
  20.3620        106
  20.3806         87
  20.3992         89
  20.4177         76
  20.4363        109
  20.4549         87
  20.4735        111
