; (content of file Y:\Sam\Apurva-07-20-2022\puck4\ML_20220718_55_SJD_4_LaB6-1min.raw)
_FILEVERSION = 3
_SAMPLE = ML_20220718_55_SJD_4_LaB6-1min
_+SAMPLE = 
_SITE = USA
_USER = Administrator
_GONIOMETER_CODE = 20
; Goniometer : D8 theta/2theta, stage : Unknown
_ATTACHMENTS_CODE = 0
_GONIOMETER_RADIUS = 200.5
_FIXED_DIVSLIT = 0.6
_FIXED_SAMPLESLIT = 0
_SOLLER_SLITS = 2
_FIXED_DETSLIT = 9.55
_MONOCHROMATOR = 0
; Incident beam monochromator : None
_SOLLER_SLITS_2 = N
_THIN_FILM = N
_BETA_FILTER = Y
_FIXED_ANTISLIT = 5.89
_ANALYZER_CODE = 0
; Received beam analyzer : None
_DATEMEASURED = "26-Jul-2022 10:58:43"
_WL_UNIT = A
_WL1 = 1.5406
_WL2 = 1.54439
_WL3 = 1.39222
_WLRATIO = 0.5
_ANODE = Cu
_V4_INF_CREATOR = XRDWizard
_V4_INF_CREATOR_VERSION = V2.9.0.22
_V4_INF_WIZARD_VERSION = V2.9.0.22
_V4_INF_WIZARD_ADDINS = V2.9.0.22
_V4_INF_WIZARD_DOCTYPE = XRD
_V4_INF_OSUSER = McQueenLab
_V4_INF_USER = Administrator
_V4_INF_SITE = USA
_V4_INF_SAMPLEID = ML_20220718_55_SJD_4_LaB6-1min

; Data for range 1
_DRIVE = COUPLED
_STEPTIME = 4.23
_STEPSIZE = 0.0185756
_STEPMODE = C
_START = 5
_THETA = 2.5
_2THETA = 5
_KHI = 0
_PHI = 0
_X = 0
_Y = 0
_Z = 0
_DETECTOR = 5
; Detector type : Unknown
_DETECTORSLIT = unkn
_AUX1 = 0
_AUX2 = 0
_AUX3 = 0
_TIMESTARTED = 15
_TEMP_RATE = -1
_TEMP_DELAY = -1
_KV = 40
_MA = 40
_RANGE_WL = 1.5406
_3DPLANE = 0
_V4_ADDITIONALDETECTOR = 257
_V4_PSD2THETA = 3.387
_V4_PSDCHANNEL1 = 0
_V4_PSDAPERTURE = 12.68
_V4_PSDTYPE = 5
_V4_PSDFIXED = 0
_V4_COUNTERS_MASK = 4096
_V4_DRIVES_MASK = 0
_V4_ENCODERS_MASK = 0
_2THETACOUNTS = 1
; 2THETA  PSD
   5.0000        104
   5.0186        101
   5.0372        102
   5.0557         77
   5.0743        102
   5.0929         87
   5.1115         91
   5.1300         82
   5.1486         90
   5.1672         89
   5.1858         98
   5.2043         94
   5.2229         89
   5.2415         92
   5.2601         78
   5.2786         83
   5.2972         86
   5.3158         80
   5.3344        103
   5.3529         77
   5.3715        109
   5.3901         84
   5.4087         83
   5.4272         93
   5.4458         91
   5.4644         93
   5.4830         77
   5.5015         74
   5.5201         83
   5.5387         70
   5.5573         62
   5.5758         82
   5.5944         82
   5.6130         86
   5.6316         82
   5.6501         76
   5.6687         74
   5.6873         78
   5.7059         80
   5.7244         84
   5.7430         79
   5.7616         62
   5.7802         83
   5.7988         72
   5.8173         80
   5.8359         58
   5.8545         81
   5.8731         68
   5.8916         68
   5.9102         65
   5.9288         59
   5.9474         83
   5.9659         76
   5.9845         67
   6.0031         84
   6.0217         75
   6.0402         69
   6.0588         70
   6.0774         66
   6.0960         77
   6.1145         71
   6.1331         62
   6.1517         70
   6.1703         77
   6.1888         82
   6.2074         51
   6.2260         72
   6.2446         98
   6.2631         60
   6.2817         59
   6.3003         66
   6.3189         55
   6.3374         71
   6.3560         58
   6.3746         58
   6.3932         69
   6.4117         76
   6.4303         66
   6.4489         76
   6.4675         59
   6.4860         71
   6.5046         63
   6.5232         80
   6.5418         68
   6.5604         89
   6.5789         76
   6.5975         69
   6.6161         58
   6.6347         72
   6.6532         46
   6.6718         77
   6.6904         68
   6.7090         58
   6.7275         67
   6.7461         67
   6.7647         67
   6.7833         68
   6.8018         50
   6.8204         71
   6.8390         51
   6.8576         68
   6.8761         60
   6.8947         84
   6.9133         57
   6.9319         67
   6.9504         43
   6.9690         59
   6.9876         54
   7.0062         57
   7.0247         47
   7.0433         57
   7.0619         64
   7.0805         47
   7.0990         53
   7.1176         69
   7.1362         50
   7.1548         55
   7.1733         55
   7.1919         66
   7.2105         64
   7.2291         59
   7.2476         66
   7.2662         54
   7.2848         50
   7.3034         56
   7.3220         65
   7.3405         54
   7.3591         72
   7.3777         68
   7.3963         56
   7.4148         64
   7.4334         68
   7.4520         62
   7.4706         64
   7.4891         40
   7.5077         68
   7.5263         46
   7.5449         55
   7.5634         62
   7.5820         58
   7.6006         59
   7.6192         67
   7.6377         71
   7.6563         73
   7.6749         74
   7.6935         47
   7.7120         60
   7.7306         62
   7.7492         69
   7.7678         88
   7.7863         83
   7.8049         69
   7.8235         56
   7.8421         57
   7.8606         75
   7.8792         72
   7.8978         76
   7.9164         53
   7.9349         78
   7.9535         73
   7.9721         63
   7.9907         69
   8.0092         67
   8.0278         77
   8.0464         62
   8.0650         59
   8.0835         59
   8.1021         62
   8.1207         46
   8.1393         63
   8.1579         66
   8.1764         73
   8.1950         63
   8.2136         62
   8.2322         68
   8.2507         72
   8.2693         61
   8.2879         78
   8.3065         69
   8.3250         56
   8.3436         63
   8.3622         63
   8.3808         68
   8.3993         50
   8.4179         78
   8.4365         67
   8.4551         83
   8.4736         59
   8.4922         81
   8.5108         67
   8.5294         78
   8.5479         63
   8.5665         59
   8.5851         62
   8.6037         81
   8.6222         86
   8.6408         67
   8.6594         61
   8.6780         72
   8.6965         92
   8.7151         76
   8.7337         75
   8.7523         84
   8.7708         74
   8.7894         67
   8.8080         76
   8.8266         76
   8.8451         88
   8.8637         58
   8.8823         71
   8.9009         70
   8.9195         79
   8.9380         76
   8.9566         75
   8.9752         79
   8.9938         86
   9.0123         95
   9.0309         72
   9.0495         89
   9.0681         77
   9.0866         68
   9.1052         83
   9.1238         80
   9.1424         85
   9.1609         74
   9.1795         71
   9.1981         87
   9.2167         62
   9.2352         65
   9.2538         78
   9.2724        104
   9.2910         76
   9.3095         86
   9.3281         76
   9.3467         84
   9.3653         76
   9.3838         85
   9.4024         87
   9.4210         91
   9.4396         78
   9.4581         91
   9.4767         91
   9.4953         88
   9.5139         68
   9.5324         74
   9.5510         86
   9.5696         75
   9.5882         85
   9.6067         92
   9.6253         80
   9.6439         92
   9.6625         83
   9.6811         73
   9.6996         88
   9.7182         84
   9.7368         72
   9.7554         82
   9.7739         98
   9.7925         90
   9.8111         97
   9.8297         91
   9.8482         95
   9.8668         95
   9.8854         84
   9.9040        102
   9.9225         86
   9.9411         81
   9.9597         77
   9.9783         87
   9.9968        104
  10.0154         96
  10.0340         94
  10.0526        100
  10.0711         99
  10.0897         89
  10.1083         91
  10.1269         77
  10.1454        102
  10.1640        109
  10.1826         94
  10.2012        100
  10.2197         81
  10.2383         88
  10.2569         85
  10.2755         97
  10.2940        101
  10.3126         98
  10.3312         89
  10.3498         84
  10.3683         75
  10.3869         83
  10.4055         89
  10.4241         88
  10.4427        107
  10.4612         83
  10.4798        103
  10.4984         87
  10.5170        114
  10.5355         94
  10.5541         95
  10.5727         78
  10.5913         82
  10.6098         96
  10.6284         76
  10.6470         80
  10.6656         90
  10.6841        100
  10.7027         93
  10.7213         85
  10.7399         80
  10.7584         71
  10.7770         82
  10.7956         95
  10.8142         89
  10.8327         92
  10.8513        101
  10.8699         80
  10.8885         95
  10.9070         93
  10.9256         92
  10.9442         64
  10.9628         95
  10.9813         99
  10.9999         85
  11.0185         81
  11.0371         82
  11.0556         78
  11.0742         76
  11.0928         97
  11.1114         84
  11.1299         80
  11.1485         93
  11.1671         95
  11.1857         96
  11.2043         97
  11.2228         84
  11.2414         78
  11.2600         82
  11.2786         80
  11.2971         80
  11.3157         96
  11.3343         81
  11.3529         78
  11.3714        114
  11.3900         84
  11.4086         89
  11.4272         96
  11.4457         77
  11.4643        100
  11.4829         89
  11.5015        114
  11.5200         88
  11.5386         78
  11.5572         83
  11.5758        101
  11.5943         85
  11.6129         82
  11.6315         79
  11.6501         89
  11.6686         93
  11.6872         82
  11.7058         93
  11.7244         88
  11.7429         97
  11.7615         80
  11.7801         92
  11.7987         84
  11.8172         84
  11.8358         88
  11.8544         92
  11.8730        100
  11.8915        103
  11.9101         77
  11.9287         89
  11.9473         78
  11.9659         80
  11.9844         73
  12.0030         79
  12.0216         77
  12.0402         65
  12.0587         83
  12.0773         68
  12.0959         84
  12.1145         87
  12.1330         90
  12.1516         88
  12.1702         76
  12.1888         75
  12.2073         80
  12.2259         83
  12.2445         82
  12.2631         66
  12.2816         84
  12.3002         81
  12.3188         81
  12.3374         87
  12.3559         74
  12.3745         81
  12.3931         73
  12.4117         63
  12.4302         78
  12.4488         78
  12.4674         66
  12.4860         79
  12.5045         78
  12.5231         64
  12.5417         84
  12.5603         79
  12.5788         79
  12.5974         68
  12.6160         65
  12.6346         70
  12.6531         66
  12.6717         89
  12.6903         80
  12.7089         90
  12.7274         70
  12.7460         66
  12.7646         70
  12.7832         74
  12.8018         76
  12.8203         82
  12.8389         79
  12.8575         80
  12.8761         76
  12.8946         72
  12.9132         67
  12.9318         94
  12.9504         84
  12.9689         65
  12.9875         86
  13.0061         78
  13.0247         67
  13.0432         70
  13.0618         72
  13.0804         67
  13.0990         81
  13.1175         84
  13.1361         76
  13.1547         76
  13.1733         82
  13.1918         69
  13.2104         66
  13.2290         72
  13.2476         71
  13.2661         80
  13.2847         75
  13.3033         72
  13.3219         70
  13.3404         79
  13.3590         65
  13.3776         84
  13.3962         79
  13.4147         82
  13.4333         75
  13.4519         76
  13.4705         66
  13.4890         68
  13.5076         58
  13.5262         78
  13.5448         71
  13.5634         87
  13.5819         74
  13.6005         67
  13.6191         74
  13.6377         76
  13.6562         79
  13.6748         71
  13.6934         66
  13.7120         70
  13.7305         68
  13.7491         68
  13.7677         77
  13.7863         75
  13.8048         71
  13.8234         78
  13.8420         65
  13.8606         65
  13.8791         64
  13.8977         66
  13.9163         60
  13.9349         54
  13.9534         81
  13.9720         69
  13.9906         64
  14.0092         59
  14.0277         52
  14.0463         75
  14.0649         56
  14.0835         62
  14.1020         64
  14.1206         65
  14.1392         64
  14.1578         86
  14.1763         73
  14.1949         53
  14.2135         61
  14.2321         72
  14.2506         71
  14.2692         70
  14.2878         71
  14.3064         54
  14.3250         59
  14.3435         72
  14.3621         58
  14.3807         56
  14.3993         74
  14.4178         67
  14.4364         67
  14.4550         73
  14.4736         59
  14.4921         59
  14.5107         65
  14.5293         56
  14.5479         63
  14.5664         59
  14.5850         56
  14.6036         55
  14.6222         56
  14.6407         71
  14.6593         57
  14.6779         54
  14.6965         60
  14.7150         55
  14.7336         60
  14.7522         59
  14.7708         58
  14.7893         53
  14.8079         57
  14.8265         43
  14.8451         53
  14.8636         50
  14.8822         57
  14.9008         58
  14.9194         58
  14.9379         56
  14.9565         60
  14.9751         55
  14.9937         50
  15.0122         54
  15.0308         52
  15.0494         62
  15.0680         56
  15.0866         57
  15.1051         67
  15.1237         70
  15.1423         60
  15.1609         63
  15.1794         60
  15.1980         67
  15.2166         58
  15.2352         61
  15.2537         57
  15.2723         69
  15.2909         67
  15.3095         54
  15.3280         73
  15.3466         72
  15.3652         65
  15.3838         50
  15.4023         50
  15.4209         59
  15.4395         51
  15.4581         58
  15.4766         56
  15.4952         54
  15.5138         51
  15.5324         61
  15.5509         71
  15.5695         58
  15.5881         65
  15.6067         61
  15.6252         50
  15.6438         53
  15.6624         53
  15.6810         77
  15.6995         67
  15.7181         63
  15.7367         56
  15.7553         47
  15.7738         58
  15.7924         61
  15.8110         68
  15.8296         67
  15.8482         64
  15.8667         49
  15.8853         68
  15.9039         66
  15.9225         61
  15.9410         60
  15.9596         65
  15.9782         48
  15.9968         64
  16.0153         60
  16.0339         66
  16.0525         60
  16.0711         53
  16.0896         45
  16.1082         64
  16.1268         58
  16.1454         39
  16.1639         59
  16.1825         58
  16.2011         57
  16.2197         60
  16.2382         52
  16.2568         64
  16.2754         60
  16.2940         76
  16.3125         68
  16.3311         59
  16.3497         66
  16.3683         58
  16.3868         56
  16.4054         60
  16.4240         75
  16.4426         56
  16.4611         54
  16.4797         59
  16.4983         61
  16.5169         58
  16.5354         48
  16.5540         70
  16.5726         51
  16.5912         62
  16.6097         54
  16.6283         45
  16.6469         57
  16.6655         53
  16.6841         60
  16.7026         60
  16.7212         61
  16.7398         63
  16.7584         75
  16.7769         60
  16.7955         55
  16.8141         79
  16.8327         57
  16.8512         65
  16.8698         57
  16.8884         61
  16.9070         65
  16.9255         58
  16.9441         56
  16.9627         61
  16.9813         59
  16.9998         65
  17.0184         68
  17.0370         73
  17.0556         61
  17.0741         75
  17.0927         66
  17.1113         68
  17.1299         63
  17.1484         53
  17.1670         65
  17.1856         60
  17.2042         48
  17.2227         51
  17.2413         57
  17.2599         65
  17.2785         60
  17.2970         46
  17.3156         68
  17.3342         58
  17.3528         66
  17.3713         58
  17.3899         52
  17.4085         60
  17.4271         64
  17.4457         52
  17.4642         56
  17.4828         59
  17.5014         61
  17.5200         50
  17.5385         68
  17.5571         48
  17.5757         48
  17.5943         57
  17.6128         49
  17.6314         60
  17.6500         65
  17.6686         53
  17.6871         61
  17.7057         60
  17.7243         49
  17.7429         58
  17.7614         51
  17.7800         72
  17.7986         41
  17.8172         63
  17.8357         69
  17.8543         64
  17.8729         67
  17.8915         56
  17.9100         56
  17.9286         56
  17.9472         59
  17.9658         53
  17.9843         50
  18.0029         53
  18.0215         63
  18.0401         75
  18.0586         62
  18.0772         55
  18.0958         58
  18.1144         69
  18.1329         62
  18.1515         58
  18.1701         58
  18.1887         74
  18.2073         48
  18.2258         59
  18.2444         47
  18.2630         58
  18.2816         55
  18.3001         62
  18.3187         53
  18.3373         45
  18.3559         65
  18.3744         57
  18.3930         59
  18.4116         71
  18.4302         60
  18.4487         69
  18.4673         61
  18.4859         65
  18.5045         50
  18.5230         71
  18.5416         52
  18.5602         66
  18.5788         58
  18.5973         52
  18.6159         71
  18.6345         62
  18.6531         58
  18.6716         63
  18.6902         61
  18.7088         55
  18.7274         54
  18.7459         57
  18.7645         76
  18.7831         59
  18.8017         60
  18.8202         61
  18.8388         51
  18.8574         60
  18.8760         56
  18.8945         58
  18.9131         73
  18.9317         54
  18.9503         79
  18.9689         57
  18.9874         63
  19.0060         50
  19.0246         58
  19.0432         58
  19.0617         60
  19.0803         68
  19.0989         68
  19.1175         74
  19.1360         71
  19.1546         68
  19.1732         67
  19.1918         67
  19.2103         72
  19.2289         72
  19.2475         62
  19.2661         65
  19.2846         65
  19.3032         69
  19.3218         68
  19.3404         65
  19.3589         73
  19.3775         51
  19.3961         58
  19.4147         56
  19.4332         73
  19.4518         60
  19.4704         60
  19.4890         74
  19.5075         62
  19.5261         58
  19.5447         81
  19.5633         58
  19.5818         70
  19.6004         56
  19.6190         61
  19.6376         58
  19.6561         69
  19.6747         65
  19.6933         67
  19.7119         59
  19.7305         65
  19.7490         60
  19.7676         67
  19.7862         56
  19.8048         71
  19.8233         64
  19.8419         68
  19.8605         69
  19.8791         67
  19.8976         63
  19.9162         47
  19.9348         66
  19.9534         67
  19.9719         73
  19.9905         67
  20.0091         72
  20.0277         69
  20.0462         68
  20.0648         55
  20.0834         70
  20.1020         73
  20.1205         68
  20.1391         58
  20.1577         76
  20.1763         64
  20.1948         59
  20.2134         63
  20.2320         45
  20.2506         60
  20.2691         68
  20.2877         72
  20.3063         62
  20.3249         63
  20.3434         57
  20.3620         70
  20.3806         89
  20.3992         58
  20.4177         68
  20.4363         68
  20.4549         50
  20.4735         74
