; (content of file Y:\Sam\Apurva-07-20-2022\puck4\ML_20220718_52_SJD_4_LaB6-4min.raw)
_FILEVERSION = 3
_SAMPLE = ML_20220718_52_SJD_4_LaB6-4min
_+SAMPLE = 
_SITE = USA
_USER = Administrator
_GONIOMETER_CODE = 20
; Goniometer : D8 theta/2theta, stage : Unknown
_ATTACHMENTS_CODE = 0
_GONIOMETER_RADIUS = 200.5
_FIXED_DIVSLIT = 0.6
_FIXED_SAMPLESLIT = 0
_SOLLER_SLITS = 2
_FIXED_DETSLIT = 9.55
_MONOCHROMATOR = 0
; Incident beam monochromator : None
_SOLLER_SLITS_2 = N
_THIN_FILM = N
_BETA_FILTER = Y
_FIXED_ANTISLIT = 5.89
_ANALYZER_CODE = 0
; Received beam analyzer : None
_DATEMEASURED = "26-Jul-2022 14:09:44"
_WL_UNIT = A
_WL1 = 1.5406
_WL2 = 1.54439
_WL3 = 1.39222
_WLRATIO = 0.5
_ANODE = Cu
_V4_INF_CREATOR = XRDWizard
_V4_INF_CREATOR_VERSION = V2.9.0.22
_V4_INF_WIZARD_VERSION = V2.9.0.22
_V4_INF_WIZARD_ADDINS = V2.9.0.22
_V4_INF_WIZARD_DOCTYPE = XRD
_V4_INF_OSUSER = McQueenLab
_V4_INF_USER = Administrator
_V4_INF_SITE = USA
_V4_INF_SAMPLEID = ML_20220718_52_SJD_4_LaB6-4min

; Data for range 1
_DRIVE = COUPLED
_STEPTIME = 11.28
_STEPSIZE = 0.0185756
_STEPMODE = C
_START = 5
_THETA = 2.5
_2THETA = 5
_KHI = 0
_PHI = 0
_X = 0
_Y = 0
_Z = 0
_DETECTOR = 5
; Detector type : Unknown
_DETECTORSLIT = unkn
_AUX1 = 0
_AUX2 = 0
_AUX3 = 0
_TIMESTARTED = 15
_TEMP_RATE = -1
_TEMP_DELAY = -1
_KV = 40
_MA = 40
_RANGE_WL = 1.5406
_3DPLANE = 0
_V4_ADDITIONALDETECTOR = 257
_V4_PSD2THETA = 3.3662
_V4_PSDCHANNEL1 = 0
_V4_PSDAPERTURE = 12.68
_V4_PSDTYPE = 5
_V4_PSDFIXED = 0
_V4_COUNTERS_MASK = 4096
_V4_DRIVES_MASK = 0
_V4_ENCODERS_MASK = 0
_2THETACOUNTS = 1
; 2THETA  PSD
   5.0000        270
   5.0186        286
   5.0372        265
   5.0557        262
   5.0743        270
   5.0929        253
   5.1115        241
   5.1300        272
   5.1486        267
   5.1672        249
   5.1858        245
   5.2043        221
   5.2229        256
   5.2415        226
   5.2601        224
   5.2786        244
   5.2972        235
   5.3158        223
   5.3344        231
   5.3529        231
   5.3715        227
   5.3901        206
   5.4087        240
   5.4272        264
   5.4458        225
   5.4644        218
   5.4830        251
   5.5015        227
   5.5201        230
   5.5387        227
   5.5573        212
   5.5758        200
   5.5944        221
   5.6130        233
   5.6316        211
   5.6501        244
   5.6687        217
   5.6873        223
   5.7059        224
   5.7244        215
   5.7430        223
   5.7616        215
   5.7802        207
   5.7988        223
   5.8173        193
   5.8359        194
   5.8545        214
   5.8731        195
   5.8916        249
   5.9102        197
   5.9288        209
   5.9474        222
   5.9659        201
   5.9845        217
   6.0031        180
   6.0217        187
   6.0402        201
   6.0588        210
   6.0774        188
   6.0960        192
   6.1145        182
   6.1331        188
   6.1517        196
   6.1703        186
   6.1888        195
   6.2074        193
   6.2260        183
   6.2446        197
   6.2631        193
   6.2817        180
   6.3003        199
   6.3189        164
   6.3374        171
   6.3560        183
   6.3746        194
   6.3932        187
   6.4117        158
   6.4303        203
   6.4489        178
   6.4675        187
   6.4860        165
   6.5046        179
   6.5232        188
   6.5418        182
   6.5604        175
   6.5789        171
   6.5975        154
   6.6161        159
   6.6347        161
   6.6532        162
   6.6718        169
   6.6904        137
   6.7090        157
   6.7275        169
   6.7461        167
   6.7647        151
   6.7833        168
   6.8018        160
   6.8204        159
   6.8390        170
   6.8576        158
   6.8761        170
   6.8947        183
   6.9133        162
   6.9319        181
   6.9504        158
   6.9690        169
   6.9876        165
   7.0062        180
   7.0247        187
   7.0433        180
   7.0619        162
   7.0805        143
   7.0990        173
   7.1176        161
   7.1362        155
   7.1548        136
   7.1733        178
   7.1919        151
   7.2105        167
   7.2291        159
   7.2476        163
   7.2662        159
   7.2848        157
   7.3034        154
   7.3220        143
   7.3405        148
   7.3591        167
   7.3777        149
   7.3963        163
   7.4148        158
   7.4334        186
   7.4520        162
   7.4706        154
   7.4891        172
   7.5077        165
   7.5263        151
   7.5449        175
   7.5634        196
   7.5820        145
   7.6006        162
   7.6192        174
   7.6377        179
   7.6563        172
   7.6749        177
   7.6935        208
   7.7120        214
   7.7306        176
   7.7492        194
   7.7678        161
   7.7863        171
   7.8049        169
   7.8235        171
   7.8421        180
   7.8606        169
   7.8792        190
   7.8978        173
   7.9164        195
   7.9349        192
   7.9535        204
   7.9721        176
   7.9907        163
   8.0092        172
   8.0278        180
   8.0464        185
   8.0650        188
   8.0835        203
   8.1021        194
   8.1207        190
   8.1393        204
   8.1579        190
   8.1764        194
   8.1950        203
   8.2136        202
   8.2322        191
   8.2507        220
   8.2693        175
   8.2879        206
   8.3065        201
   8.3250        195
   8.3436        203
   8.3622        193
   8.3808        188
   8.3993        191
   8.4179        176
   8.4365        205
   8.4551        231
   8.4736        198
   8.4922        192
   8.5108        198
   8.5294        208
   8.5479        224
   8.5665        188
   8.5851        192
   8.6037        202
   8.6222        205
   8.6408        207
   8.6594        207
   8.6780        191
   8.6965        217
   8.7151        199
   8.7337        187
   8.7523        171
   8.7708        192
   8.7894        214
   8.8080        186
   8.8266        212
   8.8451        217
   8.8637        206
   8.8823        184
   8.9009        202
   8.9195        211
   8.9380        215
   8.9566        235
   8.9752        192
   8.9938        210
   9.0123        207
   9.0309        218
   9.0495        224
   9.0681        212
   9.0866        223
   9.1052        251
   9.1238        198
   9.1424        202
   9.1609        215
   9.1795        202
   9.1981        205
   9.2167        200
   9.2352        226
   9.2538        237
   9.2724        238
   9.2910        211
   9.3095        235
   9.3281        181
   9.3467        250
   9.3653        219
   9.3838        229
   9.4024        197
   9.4210        225
   9.4396        233
   9.4581        248
   9.4767        204
   9.4953        206
   9.5139        236
   9.5324        205
   9.5510        218
   9.5696        234
   9.5882        213
   9.6067        238
   9.6253        214
   9.6439        223
   9.6625        204
   9.6811        220
   9.6996        223
   9.7182        222
   9.7368        270
   9.7554        214
   9.7739        213
   9.7925        252
   9.8111        237
   9.8297        232
   9.8482        238
   9.8668        231
   9.8854        263
   9.9040        256
   9.9225        244
   9.9411        246
   9.9597        223
   9.9783        222
   9.9968        224
  10.0154        227
  10.0340        240
  10.0526        227
  10.0711        256
  10.0897        253
  10.1083        241
  10.1269        226
  10.1454        251
  10.1640        240
  10.1826        239
  10.2012        249
  10.2197        215
  10.2383        238
  10.2569        220
  10.2755        253
  10.2940        268
  10.3126        251
  10.3312        241
  10.3498        239
  10.3683        230
  10.3869        251
  10.4055        235
  10.4241        231
  10.4427        273
  10.4612        228
  10.4798        272
  10.4984        238
  10.5170        290
  10.5355        241
  10.5541        217
  10.5727        243
  10.5913        229
  10.6098        242
  10.6284        243
  10.6470        250
  10.6656        233
  10.6841        234
  10.7027        266
  10.7213        261
  10.7399        258
  10.7584        251
  10.7770        242
  10.7956        238
  10.8142        241
  10.8327        257
  10.8513        238
  10.8699        211
  10.8885        228
  10.9070        243
  10.9256        242
  10.9442        262
  10.9628        222
  10.9813        234
  10.9999        243
  11.0185        240
  11.0371        232
  11.0556        219
  11.0742        232
  11.0928        244
  11.1114        237
  11.1299        273
  11.1485        239
  11.1671        233
  11.1857        249
  11.2043        221
  11.2228        233
  11.2414        242
  11.2600        230
  11.2786        252
  11.2971        238
  11.3157        250
  11.3343        234
  11.3529        240
  11.3714        212
  11.3900        233
  11.4086        248
  11.4272        239
  11.4457        229
  11.4643        242
  11.4829        252
  11.5015        214
  11.5200        220
  11.5386        263
  11.5572        237
  11.5758        238
  11.5943        229
  11.6129        216
  11.6315        251
  11.6501        198
  11.6686        216
  11.6872        239
  11.7058        235
  11.7244        230
  11.7429        228
  11.7615        215
  11.7801        231
  11.7987        250
  11.8172        244
  11.8358        230
  11.8544        244
  11.8730        203
  11.8915        238
  11.9101        239
  11.9287        244
  11.9473        220
  11.9659        220
  11.9844        228
  12.0030        218
  12.0216        208
  12.0402        216
  12.0587        237
  12.0773        237
  12.0959        233
  12.1145        210
  12.1330        213
  12.1516        232
  12.1702        251
  12.1888        221
  12.2073        212
  12.2259        233
  12.2445        219
  12.2631        216
  12.2816        226
  12.3002        239
  12.3188        233
  12.3374        244
  12.3559        230
  12.3745        197
  12.3931        235
  12.4117        233
  12.4302        188
  12.4488        212
  12.4674        235
  12.4860        213
  12.5045        218
  12.5231        243
  12.5417        216
  12.5603        241
  12.5788        228
  12.5974        270
  12.6160        207
  12.6346        217
  12.6531        221
  12.6717        225
  12.6903        229
  12.7089        221
  12.7274        196
  12.7460        218
  12.7646        206
  12.7832        221
  12.8018        196
  12.8203        193
  12.8389        226
  12.8575        201
  12.8761        214
  12.8946        186
  12.9132        213
  12.9318        239
  12.9504        176
  12.9689        206
  12.9875        194
  13.0061        199
  13.0247        175
  13.0432        211
  13.0618        175
  13.0804        208
  13.0990        198
  13.1175        196
  13.1361        208
  13.1547        213
  13.1733        207
  13.1918        220
  13.2104        187
  13.2290        190
  13.2476        187
  13.2661        220
  13.2847        204
  13.3033        183
  13.3219        190
  13.3404        219
  13.3590        210
  13.3776        187
  13.3962        192
  13.4147        193
  13.4333        210
  13.4519        185
  13.4705        181
  13.4890        211
  13.5076        184
  13.5262        194
  13.5448        199
  13.5634        184
  13.5819        200
  13.6005        210
  13.6191        193
  13.6377        219
  13.6562        200
  13.6748        205
  13.6934        193
  13.7120        194
  13.7305        180
  13.7491        174
  13.7677        195
  13.7863        197
  13.8048        168
  13.8234        186
  13.8420        201
  13.8606        162
  13.8791        198
  13.8977        191
  13.9163        182
  13.9349        178
  13.9534        176
  13.9720        197
  13.9906        160
  14.0092        182
  14.0277        196
  14.0463        179
  14.0649        184
  14.0835        181
  14.1020        200
  14.1206        158
  14.1392        167
  14.1578        171
  14.1763        182
  14.1949        187
  14.2135        174
  14.2321        149
  14.2506        167
  14.2692        186
  14.2878        158
  14.3064        182
  14.3250        175
  14.3435        171
  14.3621        192
  14.3807        183
  14.3993        179
  14.4178        180
  14.4364        168
  14.4550        163
  14.4736        167
  14.4921        193
  14.5107        150
  14.5293        169
  14.5479        163
  14.5664        168
  14.5850        182
  14.6036        192
  14.6222        161
  14.6407        151
  14.6593        160
  14.6779        188
  14.6965        178
  14.7150        173
  14.7336        169
  14.7522        195
  14.7708        177
  14.7893        153
  14.8079        176
  14.8265        163
  14.8451        170
  14.8636        168
  14.8822        162
  14.9008        176
  14.9194        175
  14.9379        165
  14.9565        160
  14.9751        155
  14.9937        165
  15.0122        176
  15.0308        161
  15.0494        179
  15.0680        152
  15.0866        167
  15.1051        176
  15.1237        156
  15.1423        165
  15.1609        172
  15.1794        177
  15.1980        154
  15.2166        162
  15.2352        174
  15.2537        143
  15.2723        160
  15.2909        164
  15.3095        148
  15.3280        171
  15.3466        171
  15.3652        179
  15.3838        187
  15.4023        169
  15.4209        162
  15.4395        179
  15.4581        163
  15.4766        138
  15.4952        163
  15.5138        169
  15.5324        159
  15.5509        187
  15.5695        164
  15.5881        155
  15.6067        160
  15.6252        167
  15.6438        155
  15.6624        151
  15.6810        158
  15.6995        165
  15.7181        137
  15.7367        171
  15.7553        184
  15.7738        165
  15.7924        150
  15.8110        133
  15.8296        165
  15.8482        165
  15.8667        164
  15.8853        167
  15.9039        154
  15.9225        156
  15.9410        171
  15.9596        154
  15.9782        175
  15.9968        141
  16.0153        131
  16.0339        160
  16.0525        151
  16.0711        168
  16.0896        167
  16.1082        139
  16.1268        148
  16.1454        156
  16.1639        169
  16.1825        189
  16.2011        165
  16.2197        165
  16.2382        164
  16.2568        167
  16.2754        171
  16.2940        164
  16.3125        172
  16.3311        160
  16.3497        167
  16.3683        158
  16.3868        153
  16.4054        171
  16.4240        162
  16.4426        157
  16.4611        141
  16.4797        171
  16.4983        165
  16.5169        136
  16.5354        162
  16.5540        170
  16.5726        164
  16.5912        160
  16.6097        172
  16.6283        144
  16.6469        153
  16.6655        163
  16.6841        167
  16.7026        188
  16.7212        149
  16.7398        170
  16.7584        166
  16.7769        168
  16.7955        177
  16.8141        156
  16.8327        155
  16.8512        171
  16.8698        147
  16.8884        160
  16.9070        152
  16.9255        152
  16.9441        149
  16.9627        156
  16.9813        177
  16.9998        181
  17.0184        160
  17.0370        147
  17.0556        159
  17.0741        165
  17.0927        161
  17.1113        152
  17.1299        156
  17.1484        198
  17.1670        166
  17.1856        168
  17.2042        188
  17.2227        155
  17.2413        163
  17.2599        162
  17.2785        166
  17.2970        153
  17.3156        147
  17.3342        151
  17.3528        188
  17.3713        141
  17.3899        152
  17.4085        179
  17.4271        171
  17.4457        165
  17.4642        169
  17.4828        191
  17.5014        147
  17.5200        188
  17.5385        168
  17.5571        148
  17.5757        169
  17.5943        166
  17.6128        151
  17.6314        161
  17.6500        126
  17.6686        156
  17.6871        171
  17.7057        149
  17.7243        173
  17.7429        163
  17.7614        144
  17.7800        164
  17.7986        180
  17.8172        171
  17.8357        148
  17.8543        174
  17.8729        153
  17.8915        176
  17.9100        155
  17.9286        155
  17.9472        145
  17.9658        162
  17.9843        161
  18.0029        162
  18.0215        158
  18.0401        169
  18.0586        157
  18.0772        183
  18.0958        155
  18.1144        182
  18.1329        176
  18.1515        145
  18.1701        170
  18.1887        173
  18.2073        165
  18.2258        166
  18.2444        172
  18.2630        151
  18.2816        166
  18.3001        152
  18.3187        165
  18.3373        165
  18.3559        160
  18.3744        172
  18.3930        169
  18.4116        161
  18.4302        172
  18.4487        172
  18.4673        200
  18.4859        164
  18.5045        214
  18.5230        173
  18.5416        185
  18.5602        177
  18.5788        194
  18.5973        173
  18.6159        169
  18.6345        179
  18.6531        156
  18.6716        167
  18.6902        143
  18.7088        171
  18.7274        167
  18.7459        159
  18.7645        140
  18.7831        168
  18.8017        158
  18.8202        166
  18.8388        145
  18.8574        150
  18.8760        156
  18.8945        176
  18.9131        176
  18.9317        157
  18.9503        174
  18.9689        165
  18.9874        169
  19.0060        174
  19.0246        165
  19.0432        176
  19.0617        177
  19.0803        175
  19.0989        163
  19.1175        167
  19.1360        182
  19.1546        181
  19.1732        179
  19.1918        162
  19.2103        177
  19.2289        144
  19.2475        181
  19.2661        183
  19.2846        176
  19.3032        174
  19.3218        168
  19.3404        161
  19.3589        158
  19.3775        165
  19.3961        161
  19.4147        189
  19.4332        150
  19.4518        175
  19.4704        166
  19.4890        175
  19.5075        176
  19.5261        173
  19.5447        191
  19.5633        171
  19.5818        180
  19.6004        182
  19.6190        157
  19.6376        178
  19.6561        179
  19.6747        191
  19.6933        181
  19.7119        179
  19.7305        180
  19.7490        164
  19.7676        172
  19.7862        190
  19.8048        202
  19.8233        169
  19.8419        195
  19.8605        187
  19.8791        167
  19.8976        188
  19.9162        183
  19.9348        189
  19.9534        182
  19.9719        183
  19.9905        168
  20.0091        176
  20.0277        160
  20.0462        189
  20.0648        159
  20.0834        174
  20.1020        209
  20.1205        167
  20.1391        159
  20.1577        173
  20.1763        194
  20.1948        195
  20.2134        171
  20.2320        188
  20.2506        161
  20.2691        169
  20.2877        203
  20.3063        185
  20.3249        194
  20.3434        200
  20.3620        186
  20.3806        180
  20.3992        168
  20.4177        192
  20.4363        179
  20.4549        205
  20.4735        161
