; (content of file Y:\Sam\Apurva-07-20-2022\puck2\ML_20220720_5_SJD_0_LaB6-4min.raw)
_FILEVERSION = 3
_SAMPLE = ML_20220720_5_SJD_0_LaB6-4min
_+SAMPLE = 
_SITE = USA
_USER = Administrator
_GONIOMETER_CODE = 20
; Goniometer : D8 theta/2theta, stage : Unknown
_ATTACHMENTS_CODE = 0
_GONIOMETER_RADIUS = 200.5
_FIXED_DIVSLIT = 0.6
_FIXED_SAMPLESLIT = 0
_SOLLER_SLITS = 2
_FIXED_DETSLIT = 9.55
_MONOCHROMATOR = 0
; Incident beam monochromator : None
_SOLLER_SLITS_2 = N
_THIN_FILM = N
_BETA_FILTER = Y
_FIXED_ANTISLIT = 5.89
_ANALYZER_CODE = 0
; Received beam analyzer : None
_DATEMEASURED = "25-Jul-2022 17:42:33"
_WL_UNIT = A
_WL1 = 1.5406
_WL2 = 1.54439
_WL3 = 1.39222
_WLRATIO = 0.5
_ANODE = Cu
_V4_INF_CREATOR = XRDWizard
_V4_INF_CREATOR_VERSION = V2.9.0.22
_V4_INF_WIZARD_VERSION = V2.9.0.22
_V4_INF_WIZARD_ADDINS = V2.9.0.22
_V4_INF_WIZARD_DOCTYPE = XRD
_V4_INF_OSUSER = McQueenLab
_V4_INF_USER = Administrator
_V4_INF_SITE = USA
_V4_INF_SAMPLEID = ML_20220720_5_SJD_0_LaB6-4min

; Data for range 1
_DRIVE = COUPLED
_STEPTIME = 11.28
_STEPSIZE = 0.0185756
_STEPMODE = C
_START = 5
_THETA = 2.5
_2THETA = 5
_KHI = 0
_PHI = 0
_X = 0
_Y = 0
_Z = 0
_DETECTOR = 5
; Detector type : Unknown
_DETECTORSLIT = unkn
_AUX1 = 0
_AUX2 = 0
_AUX3 = 0
_TIMESTARTED = 15
_TEMP_RATE = -1
_TEMP_DELAY = -1
_KV = 40
_MA = 40
_RANGE_WL = 1.5406
_3DPLANE = 0
_V4_ADDITIONALDETECTOR = 257
_V4_PSD2THETA = 3.3882
_V4_PSDCHANNEL1 = 0
_V4_PSDAPERTURE = 12.68
_V4_PSDTYPE = 5
_V4_PSDFIXED = 0
_V4_COUNTERS_MASK = 4096
_V4_DRIVES_MASK = 0
_V4_ENCODERS_MASK = 0
_2THETACOUNTS = 1
; 2THETA  PSD
   5.0000        277
   5.0186        265
   5.0372        238
   5.0557        245
   5.0743        237
   5.0929        276
   5.1115        254
   5.1300        315
   5.1486        256
   5.1672        279
   5.1858        251
   5.2043        242
   5.2229        248
   5.2415        229
   5.2601        236
   5.2786        239
   5.2972        251
   5.3158        224
   5.3344        248
   5.3529        245
   5.3715        234
   5.3901        241
   5.4087        236
   5.4272        251
   5.4458        243
   5.4644        250
   5.4830        246
   5.5015        205
   5.5201        256
   5.5387        237
   5.5573        250
   5.5758        196
   5.5944        209
   5.6130        210
   5.6316        228
   5.6501        203
   5.6687        208
   5.6873        225
   5.7059        214
   5.7244        195
   5.7430        228
   5.7616        221
   5.7802        205
   5.7988        196
   5.8173        200
   5.8359        190
   5.8545        216
   5.8731        213
   5.8916        195
   5.9102        199
   5.9288        164
   5.9474        213
   5.9659        206
   5.9845        211
   6.0031        198
   6.0217        203
   6.0402        195
   6.0588        234
   6.0774        198
   6.0960        182
   6.1145        185
   6.1331        194
   6.1517        192
   6.1703        206
   6.1888        201
   6.2074        204
   6.2260        192
   6.2446        178
   6.2631        214
   6.2817        203
   6.3003        161
   6.3189        194
   6.3374        193
   6.3560        186
   6.3746        172
   6.3932        161
   6.4117        189
   6.4303        207
   6.4489        178
   6.4675        185
   6.4860        161
   6.5046        188
   6.5232        176
   6.5418        183
   6.5604        175
   6.5789        179
   6.5975        169
   6.6161        171
   6.6347        182
   6.6532        161
   6.6718        163
   6.6904        177
   6.7090        171
   6.7275        186
   6.7461        171
   6.7647        169
   6.7833        185
   6.8018        161
   6.8204        165
   6.8390        157
   6.8576        177
   6.8761        176
   6.8947        162
   6.9133        181
   6.9319        164
   6.9504        138
   6.9690        180
   6.9876        173
   7.0062        188
   7.0247        158
   7.0433        155
   7.0619        179
   7.0805        146
   7.0990        165
   7.1176        166
   7.1362        158
   7.1548        143
   7.1733        170
   7.1919        146
   7.2105        144
   7.2291        168
   7.2476        166
   7.2662        181
   7.2848        163
   7.3034        167
   7.3220        137
   7.3405        159
   7.3591        164
   7.3777        167
   7.3963        176
   7.4148        165
   7.4334        156
   7.4520        175
   7.4706        143
   7.4891        144
   7.5077        176
   7.5263        151
   7.5449        164
   7.5634        168
   7.5820        193
   7.6006        175
   7.6192        188
   7.6377        178
   7.6563        172
   7.6749        164
   7.6935        169
   7.7120        161
   7.7306        177
   7.7492        208
   7.7678        176
   7.7863        163
   7.8049        193
   7.8235        193
   7.8421        192
   7.8606        201
   7.8792        179
   7.8978        191
   7.9164        191
   7.9349        172
   7.9535        172
   7.9721        162
   7.9907        184
   8.0092        198
   8.0278        154
   8.0464        189
   8.0650        178
   8.0835        203
   8.1021        170
   8.1207        214
   8.1393        203
   8.1579        214
   8.1764        183
   8.1950        195
   8.2136        211
   8.2322        192
   8.2507        178
   8.2693        187
   8.2879        196
   8.3065        181
   8.3250        184
   8.3436        211
   8.3622        209
   8.3808        193
   8.3993        249
   8.4179        187
   8.4365        209
   8.4551        191
   8.4736        206
   8.4922        194
   8.5108        208
   8.5294        203
   8.5479        204
   8.5665        218
   8.5851        167
   8.6037        207
   8.6222        197
   8.6408        199
   8.6594        220
   8.6780        192
   8.6965        205
   8.7151        202
   8.7337        207
   8.7523        200
   8.7708        196
   8.7894        202
   8.8080        236
   8.8266        203
   8.8451        206
   8.8637        192
   8.8823        202
   8.9009        209
   8.9195        206
   8.9380        218
   8.9566        216
   8.9752        218
   8.9938        220
   9.0123        215
   9.0309        219
   9.0495        225
   9.0681        197
   9.0866        203
   9.1052        239
   9.1238        219
   9.1424        208
   9.1609        241
   9.1795        229
   9.1981        240
   9.2167        210
   9.2352        226
   9.2538        220
   9.2724        223
   9.2910        230
   9.3095        227
   9.3281        230
   9.3467        207
   9.3653        222
   9.3838        217
   9.4024        218
   9.4210        230
   9.4396        225
   9.4581        215
   9.4767        250
   9.4953        220
   9.5139        225
   9.5324        220
   9.5510        216
   9.5696        201
   9.5882        218
   9.6067        227
   9.6253        230
   9.6439        197
   9.6625        236
   9.6811        243
   9.6996        232
   9.7182        243
   9.7368        249
   9.7554        238
   9.7739        239
   9.7925        227
   9.8111        225
   9.8297        220
   9.8482        255
   9.8668        251
   9.8854        258
   9.9040        236
   9.9225        236
   9.9411        235
   9.9597        238
   9.9783        251
   9.9968        233
  10.0154        251
  10.0340        262
  10.0526        221
  10.0711        269
  10.0897        260
  10.1083        231
  10.1269        197
  10.1454        246
  10.1640        246
  10.1826        259
  10.2012        234
  10.2197        246
  10.2383        223
  10.2569        251
  10.2755        250
  10.2940        262
  10.3126        236
  10.3312        218
  10.3498        246
  10.3683        248
  10.3869        255
  10.4055        256
  10.4241        247
  10.4427        255
  10.4612        243
  10.4798        254
  10.4984        238
  10.5170        252
  10.5355        263
  10.5541        246
  10.5727        220
  10.5913        252
  10.6098        249
  10.6284        285
  10.6470        245
  10.6656        237
  10.6841        239
  10.7027        246
  10.7213        223
  10.7399        215
  10.7584        238
  10.7770        248
  10.7956        245
  10.8142        242
  10.8327        267
  10.8513        250
  10.8699        267
  10.8885        260
  10.9070        242
  10.9256        242
  10.9442        245
  10.9628        262
  10.9813        233
  10.9999        250
  11.0185        222
  11.0371        232
  11.0556        223
  11.0742        238
  11.0928        261
  11.1114        230
  11.1299        243
  11.1485        220
  11.1671        224
  11.1857        242
  11.2043        241
  11.2228        227
  11.2414        243
  11.2600        262
  11.2786        260
  11.2971        264
  11.3157        227
  11.3343        229
  11.3529        253
  11.3714        229
  11.3900        236
  11.4086        229
  11.4272        228
  11.4457        259
  11.4643        231
  11.4829        243
  11.5015        245
  11.5200        213
  11.5386        248
  11.5572        238
  11.5758        248
  11.5943        250
  11.6129        239
  11.6315        254
  11.6501        257
  11.6686        256
  11.6872        266
  11.7058        202
  11.7244        232
  11.7429        233
  11.7615        247
  11.7801        282
  11.7987        238
  11.8172        260
  11.8358        233
  11.8544        236
  11.8730        227
  11.8915        223
  11.9101        233
  11.9287        246
  11.9473        228
  11.9659        263
  11.9844        220
  12.0030        239
  12.0216        233
  12.0402        210
  12.0587        224
  12.0773        234
  12.0959        213
  12.1145        252
  12.1330        225
  12.1516        220
  12.1702        219
  12.1888        224
  12.2073        230
  12.2259        213
  12.2445        213
  12.2631        205
  12.2816        230
  12.3002        233
  12.3188        214
  12.3374        211
  12.3559        229
  12.3745        223
  12.3931        214
  12.4117        215
  12.4302        232
  12.4488        234
  12.4674        221
  12.4860        228
  12.5045        215
  12.5231        212
  12.5417        218
  12.5603        218
  12.5788        216
  12.5974        223
  12.6160        225
  12.6346        240
  12.6531        234
  12.6717        242
  12.6903        224
  12.7089        227
  12.7274        215
  12.7460        180
  12.7646        239
  12.7832        245
  12.8018        242
  12.8203        208
  12.8389        196
  12.8575        202
  12.8761        223
  12.8946        194
  12.9132        196
  12.9318        233
  12.9504        192
  12.9689        192
  12.9875        209
  13.0061        212
  13.0247        212
  13.0432        204
  13.0618        208
  13.0804        200
  13.0990        220
  13.1175        203
  13.1361        233
  13.1547        185
  13.1733        231
  13.1918        219
  13.2104        207
  13.2290        218
  13.2476        209
  13.2661        198
  13.2847        223
  13.3033        179
  13.3219        193
  13.3404        219
  13.3590        208
  13.3776        218
  13.3962        200
  13.4147        207
  13.4333        186
  13.4519        193
  13.4705        186
  13.4890        185
  13.5076        191
  13.5262        238
  13.5448        201
  13.5634        211
  13.5819        190
  13.6005        214
  13.6191        201
  13.6377        220
  13.6562        190
  13.6748        173
  13.6934        175
  13.7120        200
  13.7305        184
  13.7491        182
  13.7677        176
  13.7863        205
  13.8048        187
  13.8234        170
  13.8420        166
  13.8606        185
  13.8791        198
  13.8977        207
  13.9163        204
  13.9349        176
  13.9534        186
  13.9720        214
  13.9906        192
  14.0092        202
  14.0277        179
  14.0463        186
  14.0649        181
  14.0835        197
  14.1020        187
  14.1206        176
  14.1392        167
  14.1578        170
  14.1763        180
  14.1949        169
  14.2135        156
  14.2321        177
  14.2506        202
  14.2692        176
  14.2878        175
  14.3064        195
  14.3250        201
  14.3435        181
  14.3621        194
  14.3807        184
  14.3993        171
  14.4178        173
  14.4364        177
  14.4550        187
  14.4736        172
  14.4921        165
  14.5107        161
  14.5293        160
  14.5479        154
  14.5664        158
  14.5850        184
  14.6036        156
  14.6222        158
  14.6407        176
  14.6593        172
  14.6779        207
  14.6965        177
  14.7150        190
  14.7336        163
  14.7522        168
  14.7708        170
  14.7893        139
  14.8079        169
  14.8265        172
  14.8451        162
  14.8636        152
  14.8822        189
  14.9008        167
  14.9194        145
  14.9379        162
  14.9565        157
  14.9751        175
  14.9937        141
  15.0122        183
  15.0308        170
  15.0494        188
  15.0680        162
  15.0866        159
  15.1051        185
  15.1237        186
  15.1423        176
  15.1609        168
  15.1794        172
  15.1980        167
  15.2166        179
  15.2352        211
  15.2537        189
  15.2723        203
  15.2909        172
  15.3095        172
  15.3280        158
  15.3466        156
  15.3652        172
  15.3838        180
  15.4023        175
  15.4209        151
  15.4395        159
  15.4581        171
  15.4766        176
  15.4952        185
  15.5138        193
  15.5324        152
  15.5509        163
  15.5695        157
  15.5881        160
  15.6067        172
  15.6252        192
  15.6438        188
  15.6624        164
  15.6810        179
  15.6995        152
  15.7181        165
  15.7367        160
  15.7553        137
  15.7738        181
  15.7924        182
  15.8110        192
  15.8296        187
  15.8482        157
  15.8667        162
  15.8853        174
  15.9039        176
  15.9225        172
  15.9410        187
  15.9596        156
  15.9782        151
  15.9968        167
  16.0153        160
  16.0339        163
  16.0525        154
  16.0711        183
  16.0896        166
  16.1082        179
  16.1268        186
  16.1454        163
  16.1639        152
  16.1825        146
  16.2011        149
  16.2197        170
  16.2382        168
  16.2568        170
  16.2754        179
  16.2940        184
  16.3125        179
  16.3311        162
  16.3497        177
  16.3683        184
  16.3868        149
  16.4054        177
  16.4240        156
  16.4426        151
  16.4611        159
  16.4797        161
  16.4983        175
  16.5169        153
  16.5354        177
  16.5540        170
  16.5726        172
  16.5912        166
  16.6097        175
  16.6283        162
  16.6469        164
  16.6655        162
  16.6841        155
  16.7026        151
  16.7212        178
  16.7398        200
  16.7584        159
  16.7769        186
  16.7955        164
  16.8141        161
  16.8327        149
  16.8512        167
  16.8698        167
  16.8884        153
  16.9070        168
  16.9255        164
  16.9441        164
  16.9627        168
  16.9813        154
  16.9998        164
  17.0184        166
  17.0370        171
  17.0556        188
  17.0741        169
  17.0927        168
  17.1113        163
  17.1299        159
  17.1484        159
  17.1670        168
  17.1856        163
  17.2042        144
  17.2227        180
  17.2413        184
  17.2599        165
  17.2785        159
  17.2970        155
  17.3156        163
  17.3342        144
  17.3528        160
  17.3713        153
  17.3899        180
  17.4085        171
  17.4271        166
  17.4457        167
  17.4642        150
  17.4828        174
  17.5014        140
  17.5200        174
  17.5385        165
  17.5571        185
  17.5757        169
  17.5943        153
  17.6128        129
  17.6314        177
  17.6500        176
  17.6686        160
  17.6871        170
  17.7057        176
  17.7243        175
  17.7429        167
  17.7614        150
  17.7800        175
  17.7986        171
  17.8172        162
  17.8357        168
  17.8543        170
  17.8729        157
  17.8915        174
  17.9100        182
  17.9286        166
  17.9472        155
  17.9658        152
  17.9843        169
  18.0029        165
  18.0215        169
  18.0401        163
  18.0586        159
  18.0772        166
  18.0958        138
  18.1144        152
  18.1329        162
  18.1515        195
  18.1701        171
  18.1887        149
  18.2073        165
  18.2258        169
  18.2444        169
  18.2630        179
  18.2816        178
  18.3001        177
  18.3187        155
  18.3373        181
  18.3559        166
  18.3744        160
  18.3930        171
  18.4116        164
  18.4302        182
  18.4487        151
  18.4673        176
  18.4859        161
  18.5045        154
  18.5230        149
  18.5416        166
  18.5602        193
  18.5788        137
  18.5973        164
  18.6159        141
  18.6345        159
  18.6531        148
  18.6716        156
  18.6902        156
  18.7088        169
  18.7274        169
  18.7459        189
  18.7645        171
  18.7831        178
  18.8017        173
  18.8202        157
  18.8388        183
  18.8574        156
  18.8760        182
  18.8945        180
  18.9131        199
  18.9317        164
  18.9503        166
  18.9689        152
  18.9874        178
  19.0060        168
  19.0246        175
  19.0432        179
  19.0617        169
  19.0803        175
  19.0989        171
  19.1175        181
  19.1360        163
  19.1546        189
  19.1732        201
  19.1918        175
  19.2103        173
  19.2289        140
  19.2475        177
  19.2661        184
  19.2846        196
  19.3032        188
  19.3218        159
  19.3404        190
  19.3589        181
  19.3775        170
  19.3961        198
  19.4147        177
  19.4332        196
  19.4518        160
  19.4704        171
  19.4890        177
  19.5075        194
  19.5261        187
  19.5447        160
  19.5633        178
  19.5818        159
  19.6004        166
  19.6190        185
  19.6376        172
  19.6561        194
  19.6747        162
  19.6933        185
  19.7119        195
  19.7305        163
  19.7490        183
  19.7676        156
  19.7862        190
  19.8048        187
  19.8233        179
  19.8419        177
  19.8605        192
  19.8791        169
  19.8976        193
  19.9162        170
  19.9348        166
  19.9534        179
  19.9719        177
  19.9905        173
  20.0091        190
  20.0277        189
  20.0462        177
  20.0648        209
  20.0834        197
  20.1020        167
  20.1205        200
  20.1391        196
  20.1577        196
  20.1763        177
  20.1948        203
  20.2134        190
  20.2320        190
  20.2506        212
  20.2691        185
  20.2877        189
  20.3063        185
  20.3249        197
  20.3434        176
  20.3620        175
  20.3806        200
  20.3992        181
  20.4177        158
  20.4363        198
  20.4549        229
  20.4735        209
