; (content of file Y:\Sam\Apurva-07-20-2022\puck1\ML_20220721_18_SJD_0_LaB6-4min.raw)
_FILEVERSION = 3
_SAMPLE = ML_20220721_18_SJD_0_LaB6-4min
_+SAMPLE = 
_SITE = USA
_USER = Administrator
_GONIOMETER_CODE = 20
; Goniometer : D8 theta/2theta, stage : Unknown
_ATTACHMENTS_CODE = 0
_GONIOMETER_RADIUS = 200.5
_FIXED_DIVSLIT = 0.6
_FIXED_SAMPLESLIT = 0
_SOLLER_SLITS = 2
_FIXED_DETSLIT = 9.55
_MONOCHROMATOR = 0
; Incident beam monochromator : None
_SOLLER_SLITS_2 = N
_THIN_FILM = N
_BETA_FILTER = Y
_FIXED_ANTISLIT = 5.89
_ANALYZER_CODE = 0
; Received beam analyzer : None
_DATEMEASURED = "25-Jul-2022 15:13:15"
_WL_UNIT = A
_WL1 = 1.5406
_WL2 = 1.54439
_WL3 = 1.39222
_WLRATIO = 0.5
_ANODE = Cu
_V4_INF_CREATOR = XRDWizard
_V4_INF_CREATOR_VERSION = V2.9.0.22
_V4_INF_WIZARD_VERSION = V2.9.0.22
_V4_INF_WIZARD_ADDINS = V2.9.0.22
_V4_INF_WIZARD_DOCTYPE = XRD
_V4_INF_OSUSER = McQueenLab
_V4_INF_USER = Administrator
_V4_INF_SITE = USA
_V4_INF_SAMPLEID = ML_20220721_18_SJD_0_LaB6-4min

; Data for range 1
_DRIVE = COUPLED
_STEPTIME = 11.28
_STEPSIZE = 0.0185756
_STEPMODE = C
_START = 5
_THETA = 2.5
_2THETA = 5
_KHI = 0
_PHI = 0
_X = 0
_Y = 0
_Z = 0
_DETECTOR = 5
; Detector type : Unknown
_DETECTORSLIT = unkn
_AUX1 = 0
_AUX2 = 0
_AUX3 = 0
_TIMESTARTED = 15
_TEMP_RATE = -1
_TEMP_DELAY = -1
_KV = 40
_MA = 40
_RANGE_WL = 1.5406
_3DPLANE = 0
_V4_ADDITIONALDETECTOR = 257
_V4_PSD2THETA = 3.365
_V4_PSDCHANNEL1 = 0
_V4_PSDAPERTURE = 12.68
_V4_PSDTYPE = 5
_V4_PSDFIXED = 0
_V4_COUNTERS_MASK = 4096
_V4_DRIVES_MASK = 0
_V4_ENCODERS_MASK = 0
_2THETACOUNTS = 1
; 2THETA  PSD
   5.0000        288
   5.0186        279
   5.0372        275
   5.0557        249
   5.0743        244
   5.0929        270
   5.1115        267
   5.1300        264
   5.1486        269
   5.1672        265
   5.1858        303
   5.2043        260
   5.2229        233
   5.2415        262
   5.2601        247
   5.2786        243
   5.2972        253
   5.3158        242
   5.3344        250
   5.3529        230
   5.3715        225
   5.3901        258
   5.4087        251
   5.4272        235
   5.4458        247
   5.4644        252
   5.4830        221
   5.5015        232
   5.5201        221
   5.5387        235
   5.5573        244
   5.5758        208
   5.5944        234
   5.6130        243
   5.6316        235
   5.6501        213
   5.6687        231
   5.6873        213
   5.7059        236
   5.7244        221
   5.7430        197
   5.7616        213
   5.7802        210
   5.7988        215
   5.8173        197
   5.8359        240
   5.8545        244
   5.8731        190
   5.8916        205
   5.9102        196
   5.9288        208
   5.9474        188
   5.9659        205
   5.9845        201
   6.0031        211
   6.0217        223
   6.0402        195
   6.0588        195
   6.0774        213
   6.0960        202
   6.1145        205
   6.1331        185
   6.1517        199
   6.1703        180
   6.1888        192
   6.2074        187
   6.2260        194
   6.2446        203
   6.2631        195
   6.2817        177
   6.3003        208
   6.3189        170
   6.3374        175
   6.3560        179
   6.3746        174
   6.3932        200
   6.4117        160
   6.4303        173
   6.4489        171
   6.4675        164
   6.4860        182
   6.5046        182
   6.5232        198
   6.5418        192
   6.5604        193
   6.5789        207
   6.5975        152
   6.6161        179
   6.6347        150
   6.6532        156
   6.6718        190
   6.6904        164
   6.7090        163
   6.7275        158
   6.7461        176
   6.7647        173
   6.7833        153
   6.8018        131
   6.8204        163
   6.8390        186
   6.8576        167
   6.8761        179
   6.8947        152
   6.9133        163
   6.9319        169
   6.9504        160
   6.9690        190
   6.9876        154
   7.0062        182
   7.0247        169
   7.0433        157
   7.0619        165
   7.0805        159
   7.0990        167
   7.1176        169
   7.1362        162
   7.1548        166
   7.1733        174
   7.1919        151
   7.2105        181
   7.2291        175
   7.2476        162
   7.2662        167
   7.2848        152
   7.3034        146
   7.3220        150
   7.3405        152
   7.3591        156
   7.3777        157
   7.3963        178
   7.4148        170
   7.4334        166
   7.4520        163
   7.4706        174
   7.4891        181
   7.5077        186
   7.5263        159
   7.5449        165
   7.5634        189
   7.5820        176
   7.6006        184
   7.6192        147
   7.6377        195
   7.6563        153
   7.6749        172
   7.6935        178
   7.7120        196
   7.7306        200
   7.7492        173
   7.7678        187
   7.7863        177
   7.8049        206
   7.8235        172
   7.8421        186
   7.8606        202
   7.8792        189
   7.8978        197
   7.9164        184
   7.9349        191
   7.9535        185
   7.9721        182
   7.9907        185
   8.0092        199
   8.0278        195
   8.0464        166
   8.0650        187
   8.0835        173
   8.1021        204
   8.1207        207
   8.1393        181
   8.1579        220
   8.1764        173
   8.1950        197
   8.2136        187
   8.2322        222
   8.2507        207
   8.2693        199
   8.2879        192
   8.3065        183
   8.3250        204
   8.3436        209
   8.3622        208
   8.3808        204
   8.3993        199
   8.4179        225
   8.4365        210
   8.4551        207
   8.4736        207
   8.4922        181
   8.5108        208
   8.5294        199
   8.5479        211
   8.5665        210
   8.5851        207
   8.6037        214
   8.6222        186
   8.6408        209
   8.6594        219
   8.6780        212
   8.6965        210
   8.7151        185
   8.7337        201
   8.7523        218
   8.7708        216
   8.7894        184
   8.8080        209
   8.8266        223
   8.8451        196
   8.8637        193
   8.8823        208
   8.9009        204
   8.9195        207
   8.9380        208
   8.9566        199
   8.9752        190
   8.9938        245
   9.0123        214
   9.0309        207
   9.0495        222
   9.0681        207
   9.0866        247
   9.1052        228
   9.1238        259
   9.1424        271
   9.1609        229
   9.1795        215
   9.1981        223
   9.2167        224
   9.2352        236
   9.2538        219
   9.2724        225
   9.2910        221
   9.3095        234
   9.3281        209
   9.3467        212
   9.3653        256
   9.3838        214
   9.4024        248
   9.4210        213
   9.4396        229
   9.4581        234
   9.4767        243
   9.4953        225
   9.5139        230
   9.5324        213
   9.5510        216
   9.5696        227
   9.5882        215
   9.6067        229
   9.6253        214
   9.6439        242
   9.6625        220
   9.6811        221
   9.6996        243
   9.7182        235
   9.7368        244
   9.7554        242
   9.7739        255
   9.7925        228
   9.8111        246
   9.8297        262
   9.8482        266
   9.8668        234
   9.8854        259
   9.9040        269
   9.9225        286
   9.9411        248
   9.9597        256
   9.9783        265
   9.9968        220
  10.0154        234
  10.0340        252
  10.0526        239
  10.0711        229
  10.0897        195
  10.1083        255
  10.1269        251
  10.1454        263
  10.1640        255
  10.1826        234
  10.2012        267
  10.2197        234
  10.2383        229
  10.2569        258
  10.2755        258
  10.2940        229
  10.3126        246
  10.3312        238
  10.3498        245
  10.3683        261
  10.3869        249
  10.4055        247
  10.4241        253
  10.4427        240
  10.4612        243
  10.4798        236
  10.4984        247
  10.5170        238
  10.5355        238
  10.5541        246
  10.5727        255
  10.5913        250
  10.6098        252
  10.6284        254
  10.6470        208
  10.6656        247
  10.6841        236
  10.7027        253
  10.7213        234
  10.7399        234
  10.7584        250
  10.7770        226
  10.7956        222
  10.8142        250
  10.8327        246
  10.8513        231
  10.8699        247
  10.8885        267
  10.9070        211
  10.9256        237
  10.9442        238
  10.9628        248
  10.9813        252
  10.9999        236
  11.0185        245
  11.0371        254
  11.0556        254
  11.0742        241
  11.0928        227
  11.1114        266
  11.1299        205
  11.1485        223
  11.1671        236
  11.1857        247
  11.2043        249
  11.2228        234
  11.2414        215
  11.2600        270
  11.2786        263
  11.2971        244
  11.3157        250
  11.3343        249
  11.3529        214
  11.3714        243
  11.3900        210
  11.4086        202
  11.4272        216
  11.4457        231
  11.4643        262
  11.4829        236
  11.5015        237
  11.5200        242
  11.5386        239
  11.5572        219
  11.5758        245
  11.5943        263
  11.6129        221
  11.6315        271
  11.6501        252
  11.6686        226
  11.6872        243
  11.7058        237
  11.7244        250
  11.7429        200
  11.7615        218
  11.7801        231
  11.7987        224
  11.8172        209
  11.8358        257
  11.8544        248
  11.8730        234
  11.8915        230
  11.9101        239
  11.9287        238
  11.9473        245
  11.9659        219
  11.9844        224
  12.0030        250
  12.0216        222
  12.0402        206
  12.0587        236
  12.0773        236
  12.0959        193
  12.1145        208
  12.1330        243
  12.1516        256
  12.1702        216
  12.1888        215
  12.2073        208
  12.2259        220
  12.2445        254
  12.2631        231
  12.2816        219
  12.3002        208
  12.3188        248
  12.3374        229
  12.3559        245
  12.3745        213
  12.3931        185
  12.4117        226
  12.4302        212
  12.4488        226
  12.4674        233
  12.4860        235
  12.5045        210
  12.5231        242
  12.5417        208
  12.5603        233
  12.5788        192
  12.5974        216
  12.6160        209
  12.6346        213
  12.6531        213
  12.6717        202
  12.6903        239
  12.7089        194
  12.7274        225
  12.7460        210
  12.7646        206
  12.7832        204
  12.8018        199
  12.8203        211
  12.8389        201
  12.8575        188
  12.8761        252
  12.8946        199
  12.9132        235
  12.9318        208
  12.9504        226
  12.9689        213
  12.9875        192
  13.0061        210
  13.0247        212
  13.0432        201
  13.0618        193
  13.0804        206
  13.0990        201
  13.1175        216
  13.1361        215
  13.1547        221
  13.1733        190
  13.1918        201
  13.2104        203
  13.2290        199
  13.2476        194
  13.2661        206
  13.2847        199
  13.3033        209
  13.3219        200
  13.3404        208
  13.3590        195
  13.3776        205
  13.3962        228
  13.4147        232
  13.4333        221
  13.4519        214
  13.4705        192
  13.4890        186
  13.5076        174
  13.5262        189
  13.5448        179
  13.5634        194
  13.5819        213
  13.6005        196
  13.6191        178
  13.6377        216
  13.6562        195
  13.6748        211
  13.6934        202
  13.7120        174
  13.7305        197
  13.7491        201
  13.7677        184
  13.7863        183
  13.8048        185
  13.8234        203
  13.8420        173
  13.8606        188
  13.8791        183
  13.8977        179
  13.9163        203
  13.9349        200
  13.9534        187
  13.9720        191
  13.9906        236
  14.0092        202
  14.0277        209
  14.0463        169
  14.0649        184
  14.0835        192
  14.1020        177
  14.1206        202
  14.1392        195
  14.1578        174
  14.1763        174
  14.1949        166
  14.2135        192
  14.2321        193
  14.2506        180
  14.2692        185
  14.2878        173
  14.3064        185
  14.3250        195
  14.3435        196
  14.3621        187
  14.3807        178
  14.3993        170
  14.4178        181
  14.4364        174
  14.4550        176
  14.4736        166
  14.4921        176
  14.5107        179
  14.5293        162
  14.5479        197
  14.5664        179
  14.5850        168
  14.6036        165
  14.6222        169
  14.6407        171
  14.6593        183
  14.6779        158
  14.6965        186
  14.7150        175
  14.7336        186
  14.7522        184
  14.7708        177
  14.7893        193
  14.8079        172
  14.8265        150
  14.8451        158
  14.8636        164
  14.8822        176
  14.9008        162
  14.9194        170
  14.9379        172
  14.9565        166
  14.9751        182
  14.9937        153
  15.0122        167
  15.0308        171
  15.0494        154
  15.0680        159
  15.0866        170
  15.1051        184
  15.1237        167
  15.1423        174
  15.1609        187
  15.1794        157
  15.1980        186
  15.2166        144
  15.2352        168
  15.2537        194
  15.2723        155
  15.2909        199
  15.3095        183
  15.3280        152
  15.3466        187
  15.3652        166
  15.3838        149
  15.4023        154
  15.4209        158
  15.4395        187
  15.4581        156
  15.4766        172
  15.4952        165
  15.5138        167
  15.5324        166
  15.5509        148
  15.5695        168
  15.5881        166
  15.6067        142
  15.6252        175
  15.6438        180
  15.6624        159
  15.6810        179
  15.6995        167
  15.7181        165
  15.7367        158
  15.7553        173
  15.7738        184
  15.7924        157
  15.8110        187
  15.8296        151
  15.8482        160
  15.8667        182
  15.8853        163
  15.9039        141
  15.9225        176
  15.9410        155
  15.9596        164
  15.9782        155
  15.9968        172
  16.0153        159
  16.0339        169
  16.0525        177
  16.0711        164
  16.0896        171
  16.1082        179
  16.1268        153
  16.1454        182
  16.1639        181
  16.1825        167
  16.2011        139
  16.2197        191
  16.2382        148
  16.2568        171
  16.2754        173
  16.2940        136
  16.3125        188
  16.3311        163
  16.3497        170
  16.3683        162
  16.3868        168
  16.4054        178
  16.4240        163
  16.4426        154
  16.4611        173
  16.4797        161
  16.4983        154
  16.5169        170
  16.5354        166
  16.5540        171
  16.5726        167
  16.5912        181
  16.6097        167
  16.6283        159
  16.6469        164
  16.6655        161
  16.6841        152
  16.7026        143
  16.7212        169
  16.7398        177
  16.7584        158
  16.7769        162
  16.7955        173
  16.8141        167
  16.8327        167
  16.8512        148
  16.8698        158
  16.8884        165
  16.9070        168
  16.9255        167
  16.9441        170
  16.9627        152
  16.9813        171
  16.9998        167
  17.0184        178
  17.0370        182
  17.0556        160
  17.0741        176
  17.0927        168
  17.1113        153
  17.1299        163
  17.1484        177
  17.1670        162
  17.1856        171
  17.2042        176
  17.2227        174
  17.2413        152
  17.2599        171
  17.2785        152
  17.2970        166
  17.3156        141
  17.3342        184
  17.3528        171
  17.3713        173
  17.3899        166
  17.4085        171
  17.4271        179
  17.4457        170
  17.4642        168
  17.4828        165
  17.5014        172
  17.5200        146
  17.5385        167
  17.5571        164
  17.5757        157
  17.5943        176
  17.6128        158
  17.6314        174
  17.6500        172
  17.6686        144
  17.6871        167
  17.7057        165
  17.7243        159
  17.7429        182
  17.7614        148
  17.7800        157
  17.7986        170
  17.8172        174
  17.8357        170
  17.8543        174
  17.8729        159
  17.8915        153
  17.9100        177
  17.9286        153
  17.9472        188
  17.9658        173
  17.9843        156
  18.0029        164
  18.0215        184
  18.0401        164
  18.0586        196
  18.0772        160
  18.0958        163
  18.1144        168
  18.1329        165
  18.1515        164
  18.1701        179
  18.1887        149
  18.2073        153
  18.2258        168
  18.2444        147
  18.2630        189
  18.2816        153
  18.3001        151
  18.3187        165
  18.3373        161
  18.3559        184
  18.3744        176
  18.3930        162
  18.4116        154
  18.4302        183
  18.4487        154
  18.4673        163
  18.4859        163
  18.5045        182
  18.5230        168
  18.5416        155
  18.5602        166
  18.5788        155
  18.5973        173
  18.6159        164
  18.6345        163
  18.6531        155
  18.6716        181
  18.6902        162
  18.7088        171
  18.7274        191
  18.7459        181
  18.7645        154
  18.7831        181
  18.8017        168
  18.8202        161
  18.8388        162
  18.8574        162
  18.8760        182
  18.8945        171
  18.9131        150
  18.9317        174
  18.9503        173
  18.9689        162
  18.9874        159
  19.0060        169
  19.0246        170
  19.0432        168
  19.0617        165
  19.0803        173
  19.0989        216
  19.1175        156
  19.1360        176
  19.1546        153
  19.1732        177
  19.1918        181
  19.2103        174
  19.2289        170
  19.2475        158
  19.2661        171
  19.2846        175
  19.3032        157
  19.3218        179
  19.3404        165
  19.3589        163
  19.3775        175
  19.3961        174
  19.4147        179
  19.4332        182
  19.4518        163
  19.4704        156
  19.4890        187
  19.5075        169
  19.5261        169
  19.5447        176
  19.5633        156
  19.5818        193
  19.6004        182
  19.6190        184
  19.6376        193
  19.6561        178
  19.6747        172
  19.6933        158
  19.7119        183
  19.7305        162
  19.7490        201
  19.7676        165
  19.7862        193
  19.8048        173
  19.8233        170
  19.8419        156
  19.8605        181
  19.8791        180
  19.8976        193
  19.9162        183
  19.9348        200
  19.9534        194
  19.9719        167
  19.9905        186
  20.0091        186
  20.0277        209
  20.0462        207
  20.0648        172
  20.0834        189
  20.1020        172
  20.1205        175
  20.1391        189
  20.1577        195
  20.1763        174
  20.1948        181
  20.2134        172
  20.2320        198
  20.2506        181
  20.2691        178
  20.2877        183
  20.3063        195
  20.3249        168
  20.3434        188
  20.3620        189
  20.3806        175
  20.3992        204
  20.4177        191
  20.4363        201
  20.4549        168
  20.4735        177
