; (content of file Y:\Sam\Apurva-07-20-2022\puck1\ML_20220721_10_SJD_0_LaB6-4min.raw)
_FILEVERSION = 3
_SAMPLE = ML_20220721_10_SJD_0_LaB6-4min
_+SAMPLE = 
_SITE = USA
_USER = Administrator
_GONIOMETER_CODE = 20
; Goniometer : D8 theta/2theta, stage : Unknown
_ATTACHMENTS_CODE = 0
_GONIOMETER_RADIUS = 200.5
_FIXED_DIVSLIT = 0.6
_FIXED_SAMPLESLIT = 0
_SOLLER_SLITS = 2
_FIXED_DETSLIT = 9.55
_MONOCHROMATOR = 0
; Incident beam monochromator : None
_SOLLER_SLITS_2 = N
_THIN_FILM = N
_BETA_FILTER = Y
_FIXED_ANTISLIT = 5.89
_ANALYZER_CODE = 0
; Received beam analyzer : None
_DATEMEASURED = "25-Jul-2022 14:37:26"
_WL_UNIT = A
_WL1 = 1.5406
_WL2 = 1.54439
_WL3 = 1.39222
_WLRATIO = 0.5
_ANODE = Cu
_V4_INF_CREATOR = XRDWizard
_V4_INF_CREATOR_VERSION = V2.9.0.22
_V4_INF_WIZARD_VERSION = V2.9.0.22
_V4_INF_WIZARD_ADDINS = V2.9.0.22
_V4_INF_WIZARD_DOCTYPE = XRD
_V4_INF_OSUSER = McQueenLab
_V4_INF_USER = Administrator
_V4_INF_SITE = USA
_V4_INF_SAMPLEID = ML_20220721_10_SJD_0_LaB6-4min

; Data for range 1
_DRIVE = COUPLED
_STEPTIME = 11.28
_STEPSIZE = 0.0185756
_STEPMODE = C
_START = 5
_THETA = 2.5
_2THETA = 5
_KHI = 0
_PHI = 0
_X = 0
_Y = 0
_Z = 0
_DETECTOR = 5
; Detector type : Unknown
_DETECTORSLIT = unkn
_AUX1 = 0
_AUX2 = 0
_AUX3 = 0
_TIMESTARTED = 15
_TEMP_RATE = -1
_TEMP_DELAY = -1
_KV = 40
_MA = 40
_RANGE_WL = 1.5406
_3DPLANE = 0
_V4_ADDITIONALDETECTOR = 257
_V4_PSD2THETA = 3.372
_V4_PSDCHANNEL1 = 0
_V4_PSDAPERTURE = 12.68
_V4_PSDTYPE = 5
_V4_PSDFIXED = 0
_V4_COUNTERS_MASK = 4096
_V4_DRIVES_MASK = 0
_V4_ENCODERS_MASK = 0
_2THETACOUNTS = 1
; 2THETA  PSD
   5.0000        259
   5.0186        248
   5.0372        230
   5.0557        261
   5.0743        251
   5.0929        215
   5.1115        247
   5.1300        218
   5.1486        247
   5.1672        225
   5.1858        221
   5.2043        243
   5.2229        218
   5.2415        206
   5.2601        245
   5.2786        224
   5.2972        241
   5.3158        230
   5.3344        217
   5.3529        231
   5.3715        220
   5.3901        225
   5.4087        224
   5.4272        222
   5.4458        233
   5.4644        209
   5.4830        219
   5.5015        194
   5.5201        216
   5.5387        232
   5.5573        196
   5.5758        213
   5.5944        212
   5.6130        206
   5.6316        206
   5.6501        235
   5.6687        200
   5.6873        207
   5.7059        200
   5.7244        198
   5.7430        173
   5.7616        196
   5.7802        200
   5.7988        195
   5.8173        216
   5.8359        199
   5.8545        185
   5.8731        188
   5.8916        175
   5.9102        196
   5.9288        198
   5.9474        180
   5.9659        185
   5.9845        196
   6.0031        186
   6.0217        172
   6.0402        161
   6.0588        182
   6.0774        185
   6.0960        181
   6.1145        196
   6.1331        192
   6.1517        174
   6.1703        180
   6.1888        161
   6.2074        171
   6.2260        207
   6.2446        193
   6.2631        177
   6.2817        180
   6.3003        182
   6.3189        158
   6.3374        179
   6.3560        190
   6.3746        171
   6.3932        161
   6.4117        162
   6.4303        191
   6.4489        171
   6.4675        153
   6.4860        187
   6.5046        175
   6.5232        196
   6.5418        186
   6.5604        183
   6.5789        180
   6.5975        166
   6.6161        160
   6.6347        166
   6.6532        200
   6.6718        173
   6.6904        167
   6.7090        158
   6.7275        166
   6.7461        141
   6.7647        146
   6.7833        175
   6.8018        149
   6.8204        168
   6.8390        162
   6.8576        164
   6.8761        155
   6.8947        168
   6.9133        169
   6.9319        153
   6.9504        181
   6.9690        151
   6.9876        182
   7.0062        156
   7.0247        135
   7.0433        134
   7.0619        155
   7.0805        137
   7.0990        158
   7.1176        159
   7.1362        179
   7.1548        156
   7.1733        155
   7.1919        144
   7.2105        155
   7.2291        152
   7.2476        174
   7.2662        170
   7.2848        158
   7.3034        139
   7.3220        165
   7.3405        179
   7.3591        156
   7.3777        171
   7.3963        157
   7.4148        152
   7.4334        159
   7.4520        183
   7.4706        155
   7.4891        185
   7.5077        153
   7.5263        158
   7.5449        152
   7.5634        162
   7.5820        158
   7.6006        172
   7.6192        177
   7.6377        166
   7.6563        172
   7.6749        186
   7.6935        171
   7.7120        211
   7.7306        183
   7.7492        167
   7.7678        185
   7.7863        183
   7.8049        194
   7.8235        171
   7.8421        147
   7.8606        157
   7.8792        183
   7.8978        164
   7.9164        207
   7.9349        192
   7.9535        187
   7.9721        194
   7.9907        184
   8.0092        180
   8.0278        217
   8.0464        202
   8.0650        176
   8.0835        185
   8.1021        204
   8.1207        174
   8.1393        181
   8.1579        171
   8.1764        175
   8.1950        163
   8.2136        200
   8.2322        194
   8.2507        206
   8.2693        206
   8.2879        183
   8.3065        192
   8.3250        187
   8.3436        175
   8.3622        193
   8.3808        215
   8.3993        223
   8.4179        198
   8.4365        179
   8.4551        161
   8.4736        186
   8.4922        225
   8.5108        214
   8.5294        179
   8.5479        182
   8.5665        176
   8.5851        214
   8.6037        198
   8.6222        188
   8.6408        214
   8.6594        212
   8.6780        218
   8.6965        197
   8.7151        189
   8.7337        219
   8.7523        213
   8.7708        213
   8.7894        198
   8.8080        227
   8.8266        212
   8.8451        209
   8.8637        206
   8.8823        220
   8.9009        217
   8.9195        241
   8.9380        233
   8.9566        213
   8.9752        197
   8.9938        202
   9.0123        232
   9.0309        213
   9.0495        200
   9.0681        201
   9.0866        221
   9.1052        193
   9.1238        218
   9.1424        209
   9.1609        228
   9.1795        214
   9.1981        211
   9.2167        226
   9.2352        238
   9.2538        257
   9.2724        226
   9.2910        225
   9.3095        178
   9.3281        221
   9.3467        224
   9.3653        229
   9.3838        219
   9.4024        226
   9.4210        214
   9.4396        227
   9.4581        234
   9.4767        260
   9.4953        226
   9.5139        228
   9.5324        213
   9.5510        230
   9.5696        229
   9.5882        221
   9.6067        245
   9.6253        217
   9.6439        221
   9.6625        228
   9.6811        237
   9.6996        224
   9.7182        225
   9.7368        215
   9.7554        234
   9.7739        233
   9.7925        225
   9.8111        234
   9.8297        255
   9.8482        235
   9.8668        231
   9.8854        251
   9.9040        262
   9.9225        238
   9.9411        257
   9.9597        235
   9.9783        232
   9.9968        250
  10.0154        240
  10.0340        262
  10.0526        224
  10.0711        248
  10.0897        266
  10.1083        231
  10.1269        241
  10.1454        279
  10.1640        227
  10.1826        258
  10.2012        267
  10.2197        252
  10.2383        239
  10.2569        219
  10.2755        262
  10.2940        234
  10.3126        254
  10.3312        259
  10.3498        231
  10.3683        230
  10.3869        268
  10.4055        241
  10.4241        239
  10.4427        218
  10.4612        248
  10.4798        252
  10.4984        266
  10.5170        236
  10.5355        206
  10.5541        264
  10.5727        250
  10.5913        282
  10.6098        264
  10.6284        251
  10.6470        231
  10.6656        251
  10.6841        240
  10.7027        260
  10.7213        214
  10.7399        251
  10.7584        218
  10.7770        256
  10.7956        248
  10.8142        239
  10.8327        274
  10.8513        224
  10.8699        244
  10.8885        242
  10.9070        238
  10.9256        215
  10.9442        224
  10.9628        262
  10.9813        268
  10.9999        254
  11.0185        243
  11.0371        224
  11.0556        229
  11.0742        257
  11.0928        208
  11.1114        237
  11.1299        222
  11.1485        249
  11.1671        254
  11.1857        220
  11.2043        243
  11.2228        240
  11.2414        263
  11.2600        210
  11.2786        243
  11.2971        267
  11.3157        251
  11.3343        266
  11.3529        219
  11.3714        230
  11.3900        267
  11.4086        249
  11.4272        224
  11.4457        256
  11.4643        247
  11.4829        246
  11.5015        241
  11.5200        242
  11.5386        245
  11.5572        228
  11.5758        261
  11.5943        259
  11.6129        267
  11.6315        231
  11.6501        226
  11.6686        261
  11.6872        246
  11.7058        233
  11.7244        226
  11.7429        246
  11.7615        271
  11.7801        238
  11.7987        216
  11.8172        240
  11.8358        209
  11.8544        251
  11.8730        245
  11.8915        225
  11.9101        231
  11.9287        248
  11.9473        235
  11.9659        225
  11.9844        242
  12.0030        224
  12.0216        213
  12.0402        248
  12.0587        260
  12.0773        213
  12.0959        273
  12.1145        238
  12.1330        225
  12.1516        224
  12.1702        223
  12.1888        242
  12.2073        214
  12.2259        221
  12.2445        221
  12.2631        237
  12.2816        234
  12.3002        204
  12.3188        234
  12.3374        250
  12.3559        206
  12.3745        231
  12.3931        253
  12.4117        209
  12.4302        239
  12.4488        239
  12.4674        222
  12.4860        215
  12.5045        222
  12.5231        198
  12.5417        228
  12.5603        231
  12.5788        216
  12.5974        223
  12.6160        243
  12.6346        220
  12.6531        227
  12.6717        223
  12.6903        208
  12.7089        195
  12.7274        215
  12.7460        217
  12.7646        188
  12.7832        222
  12.8018        206
  12.8203        211
  12.8389        215
  12.8575        226
  12.8761        190
  12.8946        219
  12.9132        228
  12.9318        208
  12.9504        203
  12.9689        219
  12.9875        205
  13.0061        209
  13.0247        211
  13.0432        211
  13.0618        201
  13.0804        227
  13.0990        211
  13.1175        209
  13.1361        204
  13.1547        201
  13.1733        205
  13.1918        208
  13.2104        226
  13.2290        202
  13.2476        208
  13.2661        190
  13.2847        227
  13.3033        202
  13.3219        198
  13.3404        192
  13.3590        224
  13.3776        211
  13.3962        197
  13.4147        214
  13.4333        201
  13.4519        204
  13.4705        190
  13.4890        204
  13.5076        205
  13.5262        194
  13.5448        204
  13.5634        210
  13.5819        210
  13.6005        186
  13.6191        197
  13.6377        204
  13.6562        182
  13.6748        188
  13.6934        199
  13.7120        205
  13.7305        197
  13.7491        201
  13.7677        188
  13.7863        204
  13.8048        180
  13.8234        191
  13.8420        219
  13.8606        191
  13.8791        203
  13.8977        204
  13.9163        185
  13.9349        203
  13.9534        184
  13.9720        172
  13.9906        208
  14.0092        202
  14.0277        195
  14.0463        189
  14.0649        200
  14.0835        199
  14.1020        182
  14.1206        164
  14.1392        197
  14.1578        161
  14.1763        169
  14.1949        185
  14.2135        189
  14.2321        175
  14.2506        200
  14.2692        141
  14.2878        177
  14.3064        184
  14.3250        187
  14.3435        171
  14.3621        201
  14.3807        175
  14.3993        146
  14.4178        197
  14.4364        188
  14.4550        165
  14.4736        181
  14.4921        159
  14.5107        177
  14.5293        178
  14.5479        175
  14.5664        178
  14.5850        181
  14.6036        177
  14.6222        197
  14.6407        154
  14.6593        164
  14.6779        187
  14.6965        180
  14.7150        153
  14.7336        160
  14.7522        158
  14.7708        159
  14.7893        172
  14.8079        165
  14.8265        156
  14.8451        155
  14.8636        181
  14.8822        149
  14.9008        172
  14.9194        180
  14.9379        170
  14.9565        172
  14.9751        179
  14.9937        155
  15.0122        134
  15.0308        151
  15.0494        189
  15.0680        173
  15.0866        165
  15.1051        170
  15.1237        157
  15.1423        161
  15.1609        140
  15.1794        153
  15.1980        157
  15.2166        175
  15.2352        160
  15.2537        174
  15.2723        152
  15.2909        144
  15.3095        182
  15.3280        163
  15.3466        165
  15.3652        197
  15.3838        157
  15.4023        179
  15.4209        184
  15.4395        164
  15.4581        155
  15.4766        165
  15.4952        175
  15.5138        163
  15.5324        168
  15.5509        189
  15.5695        160
  15.5881        178
  15.6067        163
  15.6252        186
  15.6438        151
  15.6624        191
  15.6810        151
  15.6995        172
  15.7181        141
  15.7367        172
  15.7553        174
  15.7738        155
  15.7924        145
  15.8110        173
  15.8296        184
  15.8482        191
  15.8667        153
  15.8853        173
  15.9039        174
  15.9225        144
  15.9410        180
  15.9596        174
  15.9782        172
  15.9968        159
  16.0153        174
  16.0339        151
  16.0525        187
  16.0711        161
  16.0896        143
  16.1082        202
  16.1268        156
  16.1454        168
  16.1639        153
  16.1825        158
  16.2011        152
  16.2197        161
  16.2382        163
  16.2568        171
  16.2754        147
  16.2940        164
  16.3125        144
  16.3311        197
  16.3497        150
  16.3683        161
  16.3868        164
  16.4054        155
  16.4240        177
  16.4426        151
  16.4611        147
  16.4797        165
  16.4983        151
  16.5169        168
  16.5354        158
  16.5540        155
  16.5726        159
  16.5912        146
  16.6097        175
  16.6283        152
  16.6469        146
  16.6655        173
  16.6841        142
  16.7026        149
  16.7212        156
  16.7398        152
  16.7584        171
  16.7769        170
  16.7955        160
  16.8141        147
  16.8327        146
  16.8512        174
  16.8698        163
  16.8884        186
  16.9070        172
  16.9255        160
  16.9441        164
  16.9627        165
  16.9813        135
  16.9998        158
  17.0184        172
  17.0370        156
  17.0556        143
  17.0741        162
  17.0927        158
  17.1113        160
  17.1299        156
  17.1484        160
  17.1670        174
  17.1856        143
  17.2042        135
  17.2227        175
  17.2413        155
  17.2599        162
  17.2785        139
  17.2970        179
  17.3156        161
  17.3342        171
  17.3528        140
  17.3713        147
  17.3899        154
  17.4085        160
  17.4271        139
  17.4457        172
  17.4642        145
  17.4828        158
  17.5014        147
  17.5200        164
  17.5385        146
  17.5571        175
  17.5757        146
  17.5943        164
  17.6128        179
  17.6314        157
  17.6500        151
  17.6686        159
  17.6871        157
  17.7057        165
  17.7243        175
  17.7429        169
  17.7614        178
  17.7800        179
  17.7986        166
  17.8172        153
  17.8357        163
  17.8543        164
  17.8729        170
  17.8915        170
  17.9100        184
  17.9286        141
  17.9472        183
  17.9658        168
  17.9843        160
  18.0029        144
  18.0215        157
  18.0401        179
  18.0586        176
  18.0772        162
  18.0958        170
  18.1144        146
  18.1329        151
  18.1515        148
  18.1701        160
  18.1887        170
  18.2073        183
  18.2258        174
  18.2444        166
  18.2630        166
  18.2816        154
  18.3001        156
  18.3187        179
  18.3373        182
  18.3559        147
  18.3744        173
  18.3930        173
  18.4116        165
  18.4302        163
  18.4487        177
  18.4673        158
  18.4859        168
  18.5045        168
  18.5230        171
  18.5416        143
  18.5602        170
  18.5788        145
  18.5973        177
  18.6159        160
  18.6345        170
  18.6531        165
  18.6716        164
  18.6902        158
  18.7088        158
  18.7274        155
  18.7459        142
  18.7645        157
  18.7831        152
  18.8017        160
  18.8202        178
  18.8388        157
  18.8574        183
  18.8760        188
  18.8945        184
  18.9131        164
  18.9317        183
  18.9503        173
  18.9689        181
  18.9874        183
  19.0060        151
  19.0246        193
  19.0432        172
  19.0617        167
  19.0803        181
  19.0989        145
  19.1175        179
  19.1360        157
  19.1546        170
  19.1732        164
  19.1918        188
  19.2103        187
  19.2289        170
  19.2475        162
  19.2661        181
  19.2846        164
  19.3032        156
  19.3218        192
  19.3404        175
  19.3589        157
  19.3775        175
  19.3961        193
  19.4147        187
  19.4332        162
  19.4518        157
  19.4704        194
  19.4890        196
  19.5075        187
  19.5261        169
  19.5447        149
  19.5633        169
  19.5818        176
  19.6004        177
  19.6190        185
  19.6376        177
  19.6561        161
  19.6747        165
  19.6933        153
  19.7119        163
  19.7305        164
  19.7490        173
  19.7676        174
  19.7862        170
  19.8048        197
  19.8233        177
  19.8419        183
  19.8605        186
  19.8791        183
  19.8976        201
  19.9162        185
  19.9348        182
  19.9534        198
  19.9719        196
  19.9905        187
  20.0091        167
  20.0277        179
  20.0462        153
  20.0648        173
  20.0834        174
  20.1020        178
  20.1205        185
  20.1391        182
  20.1577        194
  20.1763        174
  20.1948        182
  20.2134        199
  20.2320        180
  20.2506        186
  20.2691        179
  20.2877        189
  20.3063        206
  20.3249        170
  20.3434        199
  20.3620        164
  20.3806        190
  20.3992        171
  20.4177        187
  20.4363        187
  20.4549        198
  20.4735        194
