; (content of file Y:\Sam\Apurva-07-20-2022\puck4\ML_20220718_31_SJD_0_LaB6-2min.raw)
_FILEVERSION = 3
_SAMPLE = ML_20220718_31_SJD_0_LaB6-2min
_+SAMPLE = 
_SITE = USA
_USER = Administrator
_GONIOMETER_CODE = 20
; Goniometer : D8 theta/2theta, stage : Unknown
_ATTACHMENTS_CODE = 0
_GONIOMETER_RADIUS = 200.5
_FIXED_DIVSLIT = 0.6
_FIXED_SAMPLESLIT = 0
_SOLLER_SLITS = 2
_FIXED_DETSLIT = 9.55
_MONOCHROMATOR = 0
; Incident beam monochromator : None
_SOLLER_SLITS_2 = N
_THIN_FILM = N
_BETA_FILTER = Y
_FIXED_ANTISLIT = 5.89
_ANALYZER_CODE = 0
; Received beam analyzer : None
_DATEMEASURED = "26-Jul-2022 09:11:14"
_WL_UNIT = A
_WL1 = 1.5406
_WL2 = 1.54439
_WL3 = 1.39222
_WLRATIO = 0.5
_ANODE = Cu
_V4_INF_CREATOR = XRDWizard
_V4_INF_CREATOR_VERSION = V2.9.0.22
_V4_INF_WIZARD_VERSION = V2.9.0.22
_V4_INF_WIZARD_ADDINS = V2.9.0.22
_V4_INF_WIZARD_DOCTYPE = XRD
_V4_INF_OSUSER = McQueenLab
_V4_INF_USER = Administrator
_V4_INF_SITE = USA
_V4_INF_SAMPLEID = ML_20220718_31_SJD_0_LaB6-2min

; Data for range 1
_DRIVE = COUPLED
_STEPTIME = 5.64
_STEPSIZE = 0.0185756
_STEPMODE = C
_START = 5
_THETA = 2.5
_2THETA = 5
_KHI = 0
_PHI = 0
_X = 0
_Y = 0
_Z = 0
_DETECTOR = 5
; Detector type : Unknown
_DETECTORSLIT = unkn
_AUX1 = 0
_AUX2 = 0
_AUX3 = 0
_TIMESTARTED = 15
_TEMP_RATE = -1
_TEMP_DELAY = -1
_KV = 40
_MA = 40
_RANGE_WL = 1.5406
_3DPLANE = 0
_V4_ADDITIONALDETECTOR = 257
_V4_PSD2THETA = 3.4183
_V4_PSDCHANNEL1 = 0
_V4_PSDAPERTURE = 12.68
_V4_PSDTYPE = 5
_V4_PSDFIXED = 0
_V4_COUNTERS_MASK = 4096
_V4_DRIVES_MASK = 0
_V4_ENCODERS_MASK = 0
_2THETACOUNTS = 1
; 2THETA  PSD
   5.0000        119
   5.0186        129
   5.0372        121
   5.0557        126
   5.0743        128
   5.0929        140
   5.1115        117
   5.1300        121
   5.1486        119
   5.1672        132
   5.1858        121
   5.2043        128
   5.2229        119
   5.2415        127
   5.2601        111
   5.2786        125
   5.2972        127
   5.3158        118
   5.3344         91
   5.3529        121
   5.3715         99
   5.3901        123
   5.4087        127
   5.4272        124
   5.4458        112
   5.4644        119
   5.4830        109
   5.5015        103
   5.5201         99
   5.5387         80
   5.5573        102
   5.5758        110
   5.5944        119
   5.6130        126
   5.6316        124
   5.6501        127
   5.6687        119
   5.6873        133
   5.7059        130
   5.7244        105
   5.7430        114
   5.7616        109
   5.7802        102
   5.7988        114
   5.8173         98
   5.8359        123
   5.8545        112
   5.8731        121
   5.8916        103
   5.9102         88
   5.9288        110
   5.9474         92
   5.9659        102
   5.9845         99
   6.0031         89
   6.0217        113
   6.0402        100
   6.0588        114
   6.0774         95
   6.0960         84
   6.1145         99
   6.1331         96
   6.1517        121
   6.1703        110
   6.1888        106
   6.2074         96
   6.2260         75
   6.2446         82
   6.2631         72
   6.2817         91
   6.3003         91
   6.3189        101
   6.3374         90
   6.3560         89
   6.3746         76
   6.3932        105
   6.4117         90
   6.4303         88
   6.4489         70
   6.4675         92
   6.4860         82
   6.5046         94
   6.5232         89
   6.5418         86
   6.5604         96
   6.5789         86
   6.5975         93
   6.6161         95
   6.6347         78
   6.6532         80
   6.6718        103
   6.6904         83
   6.7090         91
   6.7275         89
   6.7461         85
   6.7647         89
   6.7833         89
   6.8018         86
   6.8204        101
   6.8390         80
   6.8576         90
   6.8761         73
   6.8947         70
   6.9133         74
   6.9319         73
   6.9504         75
   6.9690         69
   6.9876         79
   7.0062         87
   7.0247         84
   7.0433         65
   7.0619         92
   7.0805         92
   7.0990         72
   7.1176         67
   7.1362         72
   7.1548         78
   7.1733         96
   7.1919         81
   7.2105         66
   7.2291         92
   7.2476         83
   7.2662         82
   7.2848         98
   7.3034         74
   7.3220        104
   7.3405         87
   7.3591         83
   7.3777         85
   7.3963         86
   7.4148         74
   7.4334         81
   7.4520         80
   7.4706         89
   7.4891         84
   7.5077         85
   7.5263         72
   7.5449         82
   7.5634         80
   7.5820         76
   7.6006         81
   7.6192         91
   7.6377         76
   7.6563         87
   7.6749         69
   7.6935         84
   7.7120         95
   7.7306         95
   7.7492         87
   7.7678         88
   7.7863         80
   7.8049        102
   7.8235         97
   7.8421         98
   7.8606         99
   7.8792         90
   7.8978         91
   7.9164        112
   7.9349         98
   7.9535         84
   7.9721        103
   7.9907        100
   8.0092         97
   8.0278        110
   8.0464         96
   8.0650        109
   8.0835         88
   8.1021         89
   8.1207         99
   8.1393        101
   8.1579         91
   8.1764         90
   8.1950         85
   8.2136         90
   8.2322         80
   8.2507         89
   8.2693         85
   8.2879         91
   8.3065         97
   8.3250         92
   8.3436         96
   8.3622         91
   8.3808         89
   8.3993         94
   8.4179         97
   8.4365        116
   8.4551         91
   8.4736         93
   8.4922        104
   8.5108        104
   8.5294         84
   8.5479        113
   8.5665         81
   8.5851         85
   8.6037         92
   8.6222         99
   8.6408         89
   8.6594        105
   8.6780        109
   8.6965        107
   8.7151         85
   8.7337         95
   8.7523        101
   8.7708        121
   8.7894         94
   8.8080        108
   8.8266        107
   8.8451         84
   8.8637         96
   8.8823         95
   8.9009         92
   8.9195         97
   8.9380         98
   8.9566         96
   8.9752        100
   8.9938        105
   9.0123        126
   9.0309        100
   9.0495         86
   9.0681        121
   9.0866        111
   9.1052        115
   9.1238        121
   9.1424        114
   9.1609         93
   9.1795        106
   9.1981        117
   9.2167        108
   9.2352         96
   9.2538        110
   9.2724        124
   9.2910        110
   9.3095        106
   9.3281         95
   9.3467        103
   9.3653        108
   9.3838         89
   9.4024         97
   9.4210        118
   9.4396         96
   9.4581        122
   9.4767        116
   9.4953        112
   9.5139        112
   9.5324        108
   9.5510        108
   9.5696        113
   9.5882        107
   9.6067        106
   9.6253        108
   9.6439        116
   9.6625        111
   9.6811        109
   9.6996        126
   9.7182        124
   9.7368        111
   9.7554         99
   9.7739        102
   9.7925        125
   9.8111        125
   9.8297        113
   9.8482        102
   9.8668        120
   9.8854        109
   9.9040        121
   9.9225        108
   9.9411        123
   9.9597        118
   9.9783        139
   9.9968        117
  10.0154        142
  10.0340        101
  10.0526        121
  10.0711        126
  10.0897        123
  10.1083        124
  10.1269        122
  10.1454        121
  10.1640        126
  10.1826        114
  10.2012        122
  10.2197        130
  10.2383        116
  10.2569        111
  10.2755        121
  10.2940        115
  10.3126        117
  10.3312        106
  10.3498        133
  10.3683        131
  10.3869        130
  10.4055        142
  10.4241        124
  10.4427        118
  10.4612        117
  10.4798        117
  10.4984        107
  10.5170        112
  10.5355        125
  10.5541        107
  10.5727        127
  10.5913        124
  10.6098        117
  10.6284        118
  10.6470        119
  10.6656        123
  10.6841        124
  10.7027        111
  10.7213        109
  10.7399        116
  10.7584        121
  10.7770        109
  10.7956        109
  10.8142        117
  10.8327        129
  10.8513        134
  10.8699        127
  10.8885        123
  10.9070        111
  10.9256        135
  10.9442        114
  10.9628         97
  10.9813        135
  10.9999        133
  11.0185        111
  11.0371        123
  11.0556        107
  11.0742        128
  11.0928        102
  11.1114         92
  11.1299        106
  11.1485        132
  11.1671        132
  11.1857        121
  11.2043        103
  11.2228        118
  11.2414        103
  11.2600        125
  11.2786        114
  11.2971        111
  11.3157        112
  11.3343        109
  11.3529        107
  11.3714        105
  11.3900        119
  11.4086        116
  11.4272        130
  11.4457        109
  11.4643        107
  11.4829        114
  11.5015        122
  11.5200        110
  11.5386        109
  11.5572        131
  11.5758        128
  11.5943        105
  11.6129        114
  11.6315        124
  11.6501        137
  11.6686        127
  11.6872        101
  11.7058        116
  11.7244        122
  11.7429        104
  11.7615        129
  11.7801        126
  11.7987        119
  11.8172        136
  11.8358        119
  11.8544        130
  11.8730        109
  11.8915        100
  11.9101        120
  11.9287        105
  11.9473        106
  11.9659        105
  11.9844         91
  12.0030        100
  12.0216        105
  12.0402         95
  12.0587        104
  12.0773        123
  12.0959        108
  12.1145        115
  12.1330        111
  12.1516        128
  12.1702        112
  12.1888        106
  12.2073        109
  12.2259        126
  12.2445        123
  12.2631        120
  12.2816        112
  12.3002        114
  12.3188        107
  12.3374         97
  12.3559         96
  12.3745        103
  12.3931        116
  12.4117         95
  12.4302        118
  12.4488        116
  12.4674        104
  12.4860        100
  12.5045         85
  12.5231        117
  12.5417        117
  12.5603        103
  12.5788        120
  12.5974        120
  12.6160         97
  12.6346        111
  12.6531        100
  12.6717        107
  12.6903        114
  12.7089         85
  12.7274        124
  12.7460        112
  12.7646        113
  12.7832         97
  12.8018        114
  12.8203        110
  12.8389        101
  12.8575        109
  12.8761        106
  12.8946         88
  12.9132         92
  12.9318         83
  12.9504        110
  12.9689         96
  12.9875        104
  13.0061        124
  13.0247         98
  13.0432        114
  13.0618        100
  13.0804        107
  13.0990        104
  13.1175         98
  13.1361         97
  13.1547        104
  13.1733         89
  13.1918        101
  13.2104        102
  13.2290        101
  13.2476        117
  13.2661         91
  13.2847        110
  13.3033        101
  13.3219         86
  13.3404        103
  13.3590        103
  13.3776        101
  13.3962        109
  13.4147        109
  13.4333        103
  13.4519        108
  13.4705         95
  13.4890         88
  13.5076         95
  13.5262        106
  13.5448         91
  13.5634         83
  13.5819         99
  13.6005        103
  13.6191         99
  13.6377        106
  13.6562         93
  13.6748         94
  13.6934        103
  13.7120        104
  13.7305         91
  13.7491         85
  13.7677        102
  13.7863         82
  13.8048         85
  13.8234         82
  13.8420         90
  13.8606         92
  13.8791         78
  13.8977         94
  13.9163         81
  13.9349        104
  13.9534         89
  13.9720         76
  13.9906         74
  14.0092        108
  14.0277         98
  14.0463         94
  14.0649         91
  14.0835         90
  14.1020         82
  14.1206        104
  14.1392         95
  14.1578         81
  14.1763         77
  14.1949         89
  14.2135         79
  14.2321         92
  14.2506         92
  14.2692         83
  14.2878         82
  14.3064         90
  14.3250         91
  14.3435         83
  14.3621         83
  14.3807         90
  14.3993         97
  14.4178         74
  14.4364         89
  14.4550         74
  14.4736         82
  14.4921         81
  14.5107         87
  14.5293        100
  14.5479         79
  14.5664         89
  14.5850         82
  14.6036         71
  14.6222         78
  14.6407         85
  14.6593         87
  14.6779         77
  14.6965        108
  14.7150        100
  14.7336         85
  14.7522        101
  14.7708        101
  14.7893         91
  14.8079         75
  14.8265         69
  14.8451         77
  14.8636         69
  14.8822         87
  14.9008         98
  14.9194         90
  14.9379         87
  14.9565         93
  14.9751         96
  14.9937         91
  15.0122         66
  15.0308         80
  15.0494         92
  15.0680         73
  15.0866         73
  15.1051         87
  15.1237         78
  15.1423         92
  15.1609         90
  15.1794         85
  15.1980         86
  15.2166         63
  15.2352         79
  15.2537         67
  15.2723         87
  15.2909         80
  15.3095         60
  15.3280         82
  15.3466         71
  15.3652         69
  15.3838         90
  15.4023         79
  15.4209         81
  15.4395         63
  15.4581         78
  15.4766        103
  15.4952         85
  15.5138         71
  15.5324         73
  15.5509         75
  15.5695         76
  15.5881         86
  15.6067         68
  15.6252         81
  15.6438         77
  15.6624         82
  15.6810         82
  15.6995         74
  15.7181         85
  15.7367         68
  15.7553         97
  15.7738         73
  15.7924         74
  15.8110         80
  15.8296         84
  15.8482         79
  15.8667         93
  15.8853         79
  15.9039         92
  15.9225         70
  15.9410         71
  15.9596         87
  15.9782         87
  15.9968         72
  16.0153         84
  16.0339         70
  16.0525         88
  16.0711         79
  16.0896         73
  16.1082         95
  16.1268         81
  16.1454         87
  16.1639         77
  16.1825         74
  16.2011         88
  16.2197         76
  16.2382         77
  16.2568         81
  16.2754         78
  16.2940         82
  16.3125         77
  16.3311         79
  16.3497         69
  16.3683         62
  16.3868         72
  16.4054         72
  16.4240         67
  16.4426         73
  16.4611         84
  16.4797         74
  16.4983         84
  16.5169         82
  16.5354         78
  16.5540         88
  16.5726         78
  16.5912         62
  16.6097         78
  16.6283         91
  16.6469         72
  16.6655         88
  16.6841         73
  16.7026         83
  16.7212         86
  16.7398         70
  16.7584         73
  16.7769         72
  16.7955         71
  16.8141         91
  16.8327         70
  16.8512         75
  16.8698         77
  16.8884         76
  16.9070         78
  16.9255         78
  16.9441         80
  16.9627         76
  16.9813         89
  16.9998         76
  17.0184         69
  17.0370         80
  17.0556         82
  17.0741         71
  17.0927         82
  17.1113         82
  17.1299         81
  17.1484         79
  17.1670         77
  17.1856         68
  17.2042         78
  17.2227         69
  17.2413         68
  17.2599         65
  17.2785         77
  17.2970         71
  17.3156         72
  17.3342         64
  17.3528         92
  17.3713         82
  17.3899         94
  17.4085         92
  17.4271         90
  17.4457         75
  17.4642         75
  17.4828         69
  17.5014         87
  17.5200         61
  17.5385         81
  17.5571         74
  17.5757        100
  17.5943         92
  17.6128         90
  17.6314         75
  17.6500         96
  17.6686         84
  17.6871         79
  17.7057         82
  17.7243         75
  17.7429         81
  17.7614         77
  17.7800        106
  17.7986         81
  17.8172         69
  17.8357         61
  17.8543         84
  17.8729         64
  17.8915         90
  17.9100         91
  17.9286         78
  17.9472         68
  17.9658         86
  17.9843         78
  18.0029         79
  18.0215         74
  18.0401         84
  18.0586         78
  18.0772         87
  18.0958         98
  18.1144         78
  18.1329         91
  18.1515         96
  18.1701         83
  18.1887         84
  18.2073         76
  18.2258         78
  18.2444         65
  18.2630         84
  18.2816         88
  18.3001         80
  18.3187         80
  18.3373         92
  18.3559         88
  18.3744        100
  18.3930         77
  18.4116         70
  18.4302         92
  18.4487         68
  18.4673         84
  18.4859         90
  18.5045         81
  18.5230         64
  18.5416         77
  18.5602         83
  18.5788         82
  18.5973         93
  18.6159         77
  18.6345         78
  18.6531         86
  18.6716         91
  18.6902         67
  18.7088         79
  18.7274         91
  18.7459         88
  18.7645         68
  18.7831         93
  18.8017         80
  18.8202         95
  18.8388         78
  18.8574         92
  18.8760         98
  18.8945         74
  18.9131         81
  18.9317        102
  18.9503         72
  18.9689         82
  18.9874         76
  19.0060         84
  19.0246         75
  19.0432         93
  19.0617         99
  19.0803         93
  19.0989         80
  19.1175         83
  19.1360         94
  19.1546         72
  19.1732        101
  19.1918         83
  19.2103         80
  19.2289         76
  19.2475         94
  19.2661        102
  19.2846         75
  19.3032         83
  19.3218         78
  19.3404         84
  19.3589         79
  19.3775         94
  19.3961         82
  19.4147         94
  19.4332         87
  19.4518         74
  19.4704         72
  19.4890         78
  19.5075         77
  19.5261         82
  19.5447         67
  19.5633         88
  19.5818         63
  19.6004         87
  19.6190         88
  19.6376         76
  19.6561         85
  19.6747         76
  19.6933         96
  19.7119         81
  19.7305         85
  19.7490         82
  19.7676         92
  19.7862         76
  19.8048         77
  19.8233         83
  19.8419         83
  19.8605         93
  19.8791         96
  19.8976         85
  19.9162        104
  19.9348         91
  19.9534         76
  19.9719         89
  19.9905         70
  20.0091         82
  20.0277        104
  20.0462         89
  20.0648         84
  20.0834         80
  20.1020         90
  20.1205         92
  20.1391         87
  20.1577         80
  20.1763         92
  20.1948         83
  20.2134         77
  20.2320         89
  20.2506        100
  20.2691         96
  20.2877         83
  20.3063         86
  20.3249         93
  20.3434        109
  20.3620        109
  20.3806         95
  20.3992         97
  20.4177         93
  20.4363         94
  20.4549         91
  20.4735         81
