; (content of file Y:\Sam\Apurva-07-20-2022\puck2\ML_20220720_31_SJD_0_LaB6-1min.raw)
_FILEVERSION = 3
_SAMPLE = ML_20220720_31_SJD_0_LaB6-1mi
_+SAMPLE = 
_SITE = USA
_USER = Administrator
_GONIOMETER_CODE = 20
; Goniometer : D8 theta/2theta, stage : Unknown
_ATTACHMENTS_CODE = 0
_GONIOMETER_RADIUS = 200.5
_FIXED_DIVSLIT = 0.6
_FIXED_SAMPLESLIT = 0
_SOLLER_SLITS = 2
_FIXED_DETSLIT = 9.55
_MONOCHROMATOR = 0
; Incident beam monochromator : None
_SOLLER_SLITS_2 = N
_THIN_FILM = N
_BETA_FILTER = Y
_FIXED_ANTISLIT = 5.89
_ANALYZER_CODE = 0
; Received beam analyzer : None
_DATEMEASURED = "25-Jul-2022 18:44:16"
_WL_UNIT = A
_WL1 = 1.5406
_WL2 = 1.54439
_WL3 = 1.39222
_WLRATIO = 0.5
_ANODE = Cu
_V4_INF_CREATOR = XRDWizard
_V4_INF_CREATOR_VERSION = V2.9.0.22
_V4_INF_WIZARD_VERSION = V2.9.0.22
_V4_INF_WIZARD_ADDINS = V2.9.0.22
_V4_INF_WIZARD_DOCTYPE = XRD
_V4_INF_OSUSER = McQueenLab
_V4_INF_USER = Administrator
_V4_INF_SITE = USA
_V4_INF_SAMPLEID = ML_20220720_31_SJD_0_LaB6-1mi

; Data for range 1
_DRIVE = COUPLED
_STEPTIME = 4.23
_STEPSIZE = 0.0185756
_STEPMODE = C
_START = 5
_THETA = 2.5
_2THETA = 5
_KHI = 0
_PHI = 0
_X = 0
_Y = 0
_Z = 0
_DETECTOR = 5
; Detector type : Unknown
_DETECTORSLIT = unkn
_AUX1 = 0
_AUX2 = 0
_AUX3 = 0
_TIMESTARTED = 15
_TEMP_RATE = -1
_TEMP_DELAY = -1
_KV = 40
_MA = 40
_RANGE_WL = 1.5406
_3DPLANE = 0
_V4_ADDITIONALDETECTOR = 257
_V4_PSD2THETA = 3.3733
_V4_PSDCHANNEL1 = 0
_V4_PSDAPERTURE = 12.68
_V4_PSDTYPE = 5
_V4_PSDFIXED = 0
_V4_COUNTERS_MASK = 4096
_V4_DRIVES_MASK = 0
_V4_ENCODERS_MASK = 0
_2THETACOUNTS = 1
; 2THETA  PSD
   5.0000        112
   5.0186         98
   5.0372         99
   5.0557         99
   5.0743         95
   5.0929         96
   5.1115         75
   5.1300         91
   5.1486        119
   5.1672         81
   5.1858        106
   5.2043        108
   5.2229         88
   5.2415         87
   5.2601        102
   5.2786         83
   5.2972         82
   5.3158         83
   5.3344        100
   5.3529         93
   5.3715         81
   5.3901         78
   5.4087         96
   5.4272         86
   5.4458         90
   5.4644         86
   5.4830         93
   5.5015         75
   5.5201         78
   5.5387         94
   5.5573         98
   5.5758         84
   5.5944         79
   5.6130         87
   5.6316         93
   5.6501         67
   5.6687         63
   5.6873         77
   5.7059         69
   5.7244         78
   5.7430         61
   5.7616         92
   5.7802         74
   5.7988         69
   5.8173         82
   5.8359         65
   5.8545        102
   5.8731         72
   5.8916         67
   5.9102         59
   5.9288         65
   5.9474         77
   5.9659         72
   5.9845         85
   6.0031         72
   6.0217         78
   6.0402         71
   6.0588         71
   6.0774         69
   6.0960         54
   6.1145         65
   6.1331         72
   6.1517         67
   6.1703         86
   6.1888         64
   6.2074         69
   6.2260         69
   6.2446         60
   6.2631         72
   6.2817         72
   6.3003         56
   6.3189         65
   6.3374         63
   6.3560         77
   6.3746         62
   6.3932         68
   6.4117         63
   6.4303         77
   6.4489         71
   6.4675         85
   6.4860         75
   6.5046         69
   6.5232         48
   6.5418         64
   6.5604         67
   6.5789         74
   6.5975         70
   6.6161         62
   6.6347         67
   6.6532         68
   6.6718         60
   6.6904         77
   6.7090         50
   6.7275         58
   6.7461         62
   6.7647         59
   6.7833         59
   6.8018         68
   6.8204         68
   6.8390         53
   6.8576         70
   6.8761         54
   6.8947         66
   6.9133         55
   6.9319         58
   6.9504         61
   6.9690         59
   6.9876         49
   7.0062         57
   7.0247         68
   7.0433         54
   7.0619         50
   7.0805         65
   7.0990         61
   7.1176         66
   7.1362         66
   7.1548         56
   7.1733         62
   7.1919         61
   7.2105         49
   7.2291         62
   7.2476         61
   7.2662         64
   7.2848         67
   7.3034         52
   7.3220         67
   7.3405         52
   7.3591         55
   7.3777         57
   7.3963         46
   7.4148         50
   7.4334         63
   7.4520         62
   7.4706         65
   7.4891         59
   7.5077         63
   7.5263         70
   7.5449         61
   7.5634         65
   7.5820         66
   7.6006         51
   7.6192         67
   7.6377         72
   7.6563         66
   7.6749         56
   7.6935         71
   7.7120         63
   7.7306         66
   7.7492         54
   7.7678         69
   7.7863         57
   7.8049         70
   7.8235         82
   7.8421         69
   7.8606         56
   7.8792         66
   7.8978         74
   7.9164         64
   7.9349         51
   7.9535         77
   7.9721         64
   7.9907         68
   8.0092         72
   8.0278         64
   8.0464         71
   8.0650         77
   8.0835         76
   8.1021         80
   8.1207         62
   8.1393         78
   8.1579         91
   8.1764         72
   8.1950         78
   8.2136         69
   8.2322         59
   8.2507         65
   8.2693         80
   8.2879         75
   8.3065         87
   8.3250         76
   8.3436         63
   8.3622         79
   8.3808         74
   8.3993         76
   8.4179         79
   8.4365         66
   8.4551         84
   8.4736         72
   8.4922         62
   8.5108         73
   8.5294         91
   8.5479         61
   8.5665         77
   8.5851         87
   8.6037         77
   8.6222         77
   8.6408         68
   8.6594         76
   8.6780         70
   8.6965         58
   8.7151         87
   8.7337         64
   8.7523         72
   8.7708         85
   8.7894         82
   8.8080         79
   8.8266         76
   8.8451         74
   8.8637         81
   8.8823         69
   8.9009         75
   8.9195         85
   8.9380         63
   8.9566         80
   8.9752        102
   8.9938        113
   9.0123         76
   9.0309         75
   9.0495         82
   9.0681         80
   9.0866         77
   9.1052         82
   9.1238         76
   9.1424         74
   9.1609         85
   9.1795         74
   9.1981         81
   9.2167         86
   9.2352         80
   9.2538         77
   9.2724         94
   9.2910         80
   9.3095         74
   9.3281         72
   9.3467         69
   9.3653         87
   9.3838         72
   9.4024        103
   9.4210         85
   9.4396         76
   9.4581         74
   9.4767         88
   9.4953         73
   9.5139         78
   9.5324         85
   9.5510         87
   9.5696         94
   9.5882         76
   9.6067         72
   9.6253         73
   9.6439         94
   9.6625         75
   9.6811         78
   9.6996         83
   9.7182         81
   9.7368         84
   9.7554         88
   9.7739         77
   9.7925         86
   9.8111         90
   9.8297         78
   9.8482         87
   9.8668         87
   9.8854         92
   9.9040         93
   9.9225         95
   9.9411         82
   9.9597         85
   9.9783         87
   9.9968         74
  10.0154         86
  10.0340         86
  10.0526         97
  10.0711         80
  10.0897         93
  10.1083         84
  10.1269         79
  10.1454         85
  10.1640         86
  10.1826         82
  10.2012         73
  10.2197         87
  10.2383         95
  10.2569         91
  10.2755         78
  10.2940         97
  10.3126         70
  10.3312         97
  10.3498         81
  10.3683        101
  10.3869         86
  10.4055         99
  10.4241         90
  10.4427        113
  10.4612         76
  10.4798        117
  10.4984         81
  10.5170         93
  10.5355         96
  10.5541        101
  10.5727         86
  10.5913         74
  10.6098         90
  10.6284         88
  10.6470         76
  10.6656         88
  10.6841         85
  10.7027         70
  10.7213         80
  10.7399         96
  10.7584         77
  10.7770         79
  10.7956         79
  10.8142         95
  10.8327         86
  10.8513         86
  10.8699         99
  10.8885         87
  10.9070         92
  10.9256         85
  10.9442         96
  10.9628         94
  10.9813         83
  10.9999         73
  11.0185        103
  11.0371        114
  11.0556         79
  11.0742         92
  11.0928         95
  11.1114         85
  11.1299         84
  11.1485         82
  11.1671         90
  11.1857         84
  11.2043         90
  11.2228         85
  11.2414         96
  11.2600         92
  11.2786         82
  11.2971         81
  11.3157         91
  11.3343         62
  11.3529         81
  11.3714         98
  11.3900         86
  11.4086         97
  11.4272         92
  11.4457         91
  11.4643         99
  11.4829         86
  11.5015         79
  11.5200         83
  11.5386         98
  11.5572         84
  11.5758         95
  11.5943         93
  11.6129         70
  11.6315         82
  11.6501         82
  11.6686         89
  11.6872         82
  11.7058         94
  11.7244         91
  11.7429        100
  11.7615         81
  11.7801         91
  11.7987        102
  11.8172         88
  11.8358         81
  11.8544         79
  11.8730         98
  11.8915         88
  11.9101         84
  11.9287         95
  11.9473         92
  11.9659         98
  11.9844         77
  12.0030         70
  12.0216         80
  12.0402         87
  12.0587         67
  12.0773         84
  12.0959         75
  12.1145         79
  12.1330         95
  12.1516         69
  12.1702         81
  12.1888         77
  12.2073         79
  12.2259         75
  12.2445         72
  12.2631         87
  12.2816         89
  12.3002         68
  12.3188         80
  12.3374         65
  12.3559         74
  12.3745         73
  12.3931         93
  12.4117         92
  12.4302         88
  12.4488         82
  12.4674         80
  12.4860         68
  12.5045         81
  12.5231         75
  12.5417         71
  12.5603         76
  12.5788         75
  12.5974         84
  12.6160         79
  12.6346         80
  12.6531         74
  12.6717         91
  12.6903         85
  12.7089         85
  12.7274         86
  12.7460         85
  12.7646         78
  12.7832         92
  12.8018         74
  12.8203         81
  12.8389         67
  12.8575         83
  12.8761         70
  12.8946         78
  12.9132         77
  12.9318         77
  12.9504        100
  12.9689         66
  12.9875         64
  13.0061         81
  13.0247         72
  13.0432         92
  13.0618         80
  13.0804         73
  13.0990         70
  13.1175         79
  13.1361         82
  13.1547         71
  13.1733         64
  13.1918         68
  13.2104         87
  13.2290         67
  13.2476         86
  13.2661         67
  13.2847         84
  13.3033         64
  13.3219         79
  13.3404         86
  13.3590         65
  13.3776         73
  13.3962         71
  13.4147         90
  13.4333         75
  13.4519         64
  13.4705         78
  13.4890         71
  13.5076         61
  13.5262         56
  13.5448         79
  13.5634         67
  13.5819         75
  13.6005         64
  13.6191         80
  13.6377         73
  13.6562         73
  13.6748         61
  13.6934         61
  13.7120         76
  13.7305         74
  13.7491         66
  13.7677         84
  13.7863         80
  13.8048         83
  13.8234         64
  13.8420         60
  13.8606         62
  13.8791         57
  13.8977         55
  13.9163         77
  13.9349         64
  13.9534         70
  13.9720         62
  13.9906         64
  14.0092         87
  14.0277         58
  14.0463         75
  14.0649         52
  14.0835         68
  14.1020         62
  14.1206         68
  14.1392         47
  14.1578         70
  14.1763         71
  14.1949         59
  14.2135         67
  14.2321         65
  14.2506         86
  14.2692         54
  14.2878         51
  14.3064         68
  14.3250         72
  14.3435         63
  14.3621         68
  14.3807         76
  14.3993         64
  14.4178         69
  14.4364         47
  14.4550         55
  14.4736         58
  14.4921         76
  14.5107         55
  14.5293         66
  14.5479         62
  14.5664         71
  14.5850         69
  14.6036         55
  14.6222         56
  14.6407         48
  14.6593         52
  14.6779         62
  14.6965         61
  14.7150         58
  14.7336         62
  14.7522         60
  14.7708         67
  14.7893         69
  14.8079         70
  14.8265         71
  14.8451         58
  14.8636         56
  14.8822         77
  14.9008         78
  14.9194         66
  14.9379         67
  14.9565         57
  14.9751         65
  14.9937         60
  15.0122         69
  15.0308         53
  15.0494         62
  15.0680         63
  15.0866         56
  15.1051         61
  15.1237         47
  15.1423         59
  15.1609         67
  15.1794         66
  15.1980         65
  15.2166         62
  15.2352         58
  15.2537         60
  15.2723         64
  15.2909         62
  15.3095         68
  15.3280         55
  15.3466         72
  15.3652         60
  15.3838         52
  15.4023         64
  15.4209         62
  15.4395         48
  15.4581         65
  15.4766         73
  15.4952         58
  15.5138         62
  15.5324         69
  15.5509         46
  15.5695         73
  15.5881         52
  15.6067         58
  15.6252         68
  15.6438         47
  15.6624         65
  15.6810         58
  15.6995         57
  15.7181         76
  15.7367         58
  15.7553         50
  15.7738         52
  15.7924         57
  15.8110         65
  15.8296         69
  15.8482         55
  15.8667         67
  15.8853         71
  15.9039         59
  15.9225         48
  15.9410         67
  15.9596         57
  15.9782         77
  15.9968         68
  16.0153         69
  16.0339         73
  16.0525         53
  16.0711         48
  16.0896         58
  16.1082         63
  16.1268         62
  16.1454         59
  16.1639         33
  16.1825         52
  16.2011         59
  16.2197         56
  16.2382         61
  16.2568         67
  16.2754         64
  16.2940         76
  16.3125         54
  16.3311         59
  16.3497         60
  16.3683         55
  16.3868         56
  16.4054         61
  16.4240         53
  16.4426         56
  16.4611         54
  16.4797         51
  16.4983         66
  16.5169         62
  16.5354         61
  16.5540         71
  16.5726         60
  16.5912         55
  16.6097         72
  16.6283         67
  16.6469         61
  16.6655         56
  16.6841         69
  16.7026         61
  16.7212         56
  16.7398         59
  16.7584         79
  16.7769         50
  16.7955         63
  16.8141         54
  16.8327         56
  16.8512         56
  16.8698         52
  16.8884         71
  16.9070         52
  16.9255         61
  16.9441         47
  16.9627         66
  16.9813         55
  16.9998         55
  17.0184         45
  17.0370         54
  17.0556         54
  17.0741         63
  17.0927         56
  17.1113         53
  17.1299         58
  17.1484         61
  17.1670         66
  17.1856         65
  17.2042         62
  17.2227         57
  17.2413         63
  17.2599         42
  17.2785         51
  17.2970         52
  17.3156         59
  17.3342         57
  17.3528         64
  17.3713         52
  17.3899         61
  17.4085         65
  17.4271         45
  17.4457         50
  17.4642         82
  17.4828         74
  17.5014         56
  17.5200         70
  17.5385         45
  17.5571         65
  17.5757         65
  17.5943         45
  17.6128         69
  17.6314         62
  17.6500         47
  17.6686         65
  17.6871         53
  17.7057         62
  17.7243         46
  17.7429         56
  17.7614         51
  17.7800         62
  17.7986         60
  17.8172         50
  17.8357         67
  17.8543         62
  17.8729         43
  17.8915         65
  17.9100         63
  17.9286         64
  17.9472         62
  17.9658         62
  17.9843         66
  18.0029         64
  18.0215         66
  18.0401         63
  18.0586         47
  18.0772         66
  18.0958         64
  18.1144         44
  18.1329         59
  18.1515         54
  18.1701         70
  18.1887         76
  18.2073         49
  18.2258         60
  18.2444         46
  18.2630         69
  18.2816         63
  18.3001         56
  18.3187         76
  18.3373         54
  18.3559         78
  18.3744         61
  18.3930         58
  18.4116         64
  18.4302         59
  18.4487         60
  18.4673         56
  18.4859         52
  18.5045         66
  18.5230         64
  18.5416         52
  18.5602         67
  18.5788         54
  18.5973         57
  18.6159         72
  18.6345         67
  18.6531         67
  18.6716         79
  18.6902         56
  18.7088         54
  18.7274         58
  18.7459         65
  18.7645         69
  18.7831         69
  18.8017         69
  18.8202         55
  18.8388         70
  18.8574         61
  18.8760         64
  18.8945         56
  18.9131         61
  18.9317         61
  18.9503         50
  18.9689         53
  18.9874         69
  19.0060         59
  19.0246         55
  19.0432         59
  19.0617         75
  19.0803         73
  19.0989         77
  19.1175         66
  19.1360         50
  19.1546         65
  19.1732         56
  19.1918         56
  19.2103         58
  19.2289         78
  19.2475         55
  19.2661         73
  19.2846         74
  19.3032         60
  19.3218         57
  19.3404         61
  19.3589         59
  19.3775         63
  19.3961         66
  19.4147         58
  19.4332         67
  19.4518         67
  19.4704         56
  19.4890         64
  19.5075         64
  19.5261         68
  19.5447         70
  19.5633         60
  19.5818         59
  19.6004         73
  19.6190         65
  19.6376         62
  19.6561         63
  19.6747         60
  19.6933         50
  19.7119         68
  19.7305         64
  19.7490         67
  19.7676         62
  19.7862         66
  19.8048         74
  19.8233         67
  19.8419         70
  19.8605         56
  19.8791         72
  19.8976         71
  19.9162         62
  19.9348         52
  19.9534         92
  19.9719         80
  19.9905         54
  20.0091         59
  20.0277         68
  20.0462         53
  20.0648         63
  20.0834         62
  20.1020         51
  20.1205         81
  20.1391         62
  20.1577         60
  20.1763         71
  20.1948         69
  20.2134         69
  20.2320         61
  20.2506         61
  20.2691         57
  20.2877         60
  20.3063         59
  20.3249         73
  20.3434         56
  20.3620         83
  20.3806         69
  20.3992         63
  20.4177         67
  20.4363         47
  20.4549         73
  20.4735         69
