; (content of file Y:\Sam\Apurva-07-20-2022\puck4\ML_20220718_0_SJD_0_LaB6-1min.raw)
_FILEVERSION = 3
_SAMPLE = ML_20220718_0_SJD_0_LaB6-1mi
_+SAMPLE = 
_SITE = USA
_USER = Administrator
_GONIOMETER_CODE = 20
; Goniometer : D8 theta/2theta, stage : Unknown
_ATTACHMENTS_CODE = 0
_GONIOMETER_RADIUS = 200.5
_FIXED_DIVSLIT = 0.6
_FIXED_SAMPLESLIT = 0
_SOLLER_SLITS = 2
_FIXED_DETSLIT = 9.55
_MONOCHROMATOR = 0
; Incident beam monochromator : None
_SOLLER_SLITS_2 = N
_THIN_FILM = N
_BETA_FILTER = Y
_FIXED_ANTISLIT = 5.89
_ANALYZER_CODE = 0
; Received beam analyzer : None
_DATEMEASURED = "21-Jul-2022 02:58:41"
_WL_UNIT = A
_WL1 = 1.5406
_WL2 = 1.54439
_WL3 = 1.39222
_WLRATIO = 0.5
_ANODE = Cu
_V4_INF_CREATOR = XRDWizard
_V4_INF_CREATOR_VERSION = V2.9.0.22
_V4_INF_WIZARD_VERSION = V2.9.0.22
_V4_INF_WIZARD_ADDINS = V2.9.0.22
_V4_INF_WIZARD_DOCTYPE = XRD
_V4_INF_OSUSER = McQueenLab
_V4_INF_USER = Administrator
_V4_INF_SITE = USA
_V4_INF_SAMPLEID = ML_20220718_0_SJD_0_LaB6-1mi

; Data for range 1
_DRIVE = COUPLED
_STEPTIME = 4.23
_STEPSIZE = 0.0185756
_STEPMODE = C
_START = 5
_THETA = 2.5
_2THETA = 5
_KHI = 0
_PHI = 0
_X = 0
_Y = 0
_Z = 0
_DETECTOR = 5
; Detector type : Unknown
_DETECTORSLIT = unkn
_AUX1 = 0
_AUX2 = 0
_AUX3 = 0
_TIMESTARTED = 15
_TEMP_RATE = -1
_TEMP_DELAY = -1
_KV = 40
_MA = 40
_RANGE_WL = 1.5406
_3DPLANE = 0
_V4_ADDITIONALDETECTOR = 257
_V4_PSD2THETA = 3.3706
_V4_PSDCHANNEL1 = 0
_V4_PSDAPERTURE = 12.68
_V4_PSDTYPE = 5
_V4_PSDFIXED = 0
_V4_COUNTERS_MASK = 4096
_V4_DRIVES_MASK = 0
_V4_ENCODERS_MASK = 0
_2THETACOUNTS = 1
; 2THETA  PSD
   5.0000         84
   5.0186         80
   5.0372         91
   5.0557        100
   5.0743         94
   5.0929        109
   5.1115         98
   5.1300         79
   5.1486         89
   5.1672         98
   5.1858         76
   5.2043         81
   5.2229         86
   5.2415         73
   5.2601         71
   5.2786         85
   5.2972         96
   5.3158         81
   5.3344         93
   5.3529         94
   5.3715         83
   5.3901         86
   5.4087         86
   5.4272         84
   5.4458         94
   5.4644         84
   5.4830         85
   5.5015         97
   5.5201         94
   5.5387         83
   5.5573         91
   5.5758         62
   5.5944         75
   5.6130         65
   5.6316         76
   5.6501         73
   5.6687         78
   5.6873         74
   5.7059         81
   5.7244         76
   5.7430         62
   5.7616         85
   5.7802         79
   5.7988         82
   5.8173         77
   5.8359         91
   5.8545         73
   5.8731         75
   5.8916         72
   5.9102         75
   5.9288         82
   5.9474         68
   5.9659         76
   5.9845         70
   6.0031         68
   6.0217         86
   6.0402         66
   6.0588         70
   6.0774         69
   6.0960         76
   6.1145         63
   6.1331         60
   6.1517         67
   6.1703         68
   6.1888         70
   6.2074         70
   6.2260         55
   6.2446         63
   6.2631         74
   6.2817         62
   6.3003         61
   6.3189         71
   6.3374         61
   6.3560         61
   6.3746         53
   6.3932         51
   6.4117         55
   6.4303         61
   6.4489         60
   6.4675         61
   6.4860         62
   6.5046         60
   6.5232         66
   6.5418         70
   6.5604         50
   6.5789         75
   6.5975         57
   6.6161         56
   6.6347         54
   6.6532         58
   6.6718         54
   6.6904         64
   6.7090         58
   6.7275         58
   6.7461         59
   6.7647         68
   6.7833         63
   6.8018         60
   6.8204         54
   6.8390         57
   6.8576         75
   6.8761         67
   6.8947         59
   6.9133         60
   6.9319         69
   6.9504         60
   6.9690         50
   6.9876         45
   7.0062         55
   7.0247         67
   7.0433         55
   7.0619         66
   7.0805         70
   7.0990         57
   7.1176         68
   7.1362         46
   7.1548         68
   7.1733         58
   7.1919         53
   7.2105         52
   7.2291         65
   7.2476         56
   7.2662         57
   7.2848         53
   7.3034         55
   7.3220         57
   7.3405         74
   7.3591         43
   7.3777         50
   7.3963         53
   7.4148         53
   7.4334         58
   7.4520         64
   7.4706         51
   7.4891         66
   7.5077         63
   7.5263         52
   7.5449         60
   7.5634         57
   7.5820         52
   7.6006         56
   7.6192         72
   7.6377         62
   7.6563         65
   7.6749         55
   7.6935         73
   7.7120         65
   7.7306         65
   7.7492         61
   7.7678         79
   7.7863         61
   7.8049         54
   7.8235         72
   7.8421         66
   7.8606         69
   7.8792         65
   7.8978         52
   7.9164         69
   7.9349         75
   7.9535         74
   7.9721         60
   7.9907         56
   8.0092         71
   8.0278         66
   8.0464         58
   8.0650         50
   8.0835         56
   8.1021         63
   8.1207         68
   8.1393         61
   8.1579         77
   8.1764         64
   8.1950         62
   8.2136         54
   8.2322         80
   8.2507         67
   8.2693         55
   8.2879         63
   8.3065         58
   8.3250         68
   8.3436         70
   8.3622         61
   8.3808         70
   8.3993         62
   8.4179         62
   8.4365         62
   8.4551         58
   8.4736         70
   8.4922         61
   8.5108         77
   8.5294         69
   8.5479         62
   8.5665         67
   8.5851         66
   8.6037         70
   8.6222         66
   8.6408         58
   8.6594         81
   8.6780         77
   8.6965         71
   8.7151         78
   8.7337         79
   8.7523         71
   8.7708         72
   8.7894         72
   8.8080         55
   8.8266         70
   8.8451         82
   8.8637         89
   8.8823         65
   8.9009         72
   8.9195         74
   8.9380         85
   8.9566         88
   8.9752         89
   8.9938         66
   9.0123         70
   9.0309         75
   9.0495         68
   9.0681         88
   9.0866         67
   9.1052         89
   9.1238         78
   9.1424         81
   9.1609         76
   9.1795         74
   9.1981         85
   9.2167         74
   9.2352         75
   9.2538         79
   9.2724         85
   9.2910         86
   9.3095         80
   9.3281         73
   9.3467         81
   9.3653         88
   9.3838         75
   9.4024         75
   9.4210         81
   9.4396         92
   9.4581         76
   9.4767         76
   9.4953         72
   9.5139         73
   9.5324         88
   9.5510         70
   9.5696         89
   9.5882         64
   9.6067         69
   9.6253         75
   9.6439         74
   9.6625         77
   9.6811         64
   9.6996         78
   9.7182         71
   9.7368         82
   9.7554         81
   9.7739         88
   9.7925         96
   9.8111         88
   9.8297         94
   9.8482         75
   9.8668         93
   9.8854         92
   9.9040         77
   9.9225         80
   9.9411         88
   9.9597         81
   9.9783         88
   9.9968         80
  10.0154         74
  10.0340         93
  10.0526         83
  10.0711         85
  10.0897         62
  10.1083         86
  10.1269         97
  10.1454         72
  10.1640         76
  10.1826        102
  10.2012         97
  10.2197         93
  10.2383         84
  10.2569         94
  10.2755         96
  10.2940         96
  10.3126         83
  10.3312         88
  10.3498         92
  10.3683         83
  10.3869         82
  10.4055         94
  10.4241         86
  10.4427         84
  10.4612        100
  10.4798         76
  10.4984         89
  10.5170        100
  10.5355         87
  10.5541         97
  10.5727         81
  10.5913         77
  10.6098        101
  10.6284         74
  10.6470         79
  10.6656         79
  10.6841         95
  10.7027         84
  10.7213         81
  10.7399         84
  10.7584         96
  10.7770         96
  10.7956         80
  10.8142        100
  10.8327         80
  10.8513         88
  10.8699         94
  10.8885         89
  10.9070         82
  10.9256         82
  10.9442        101
  10.9628         85
  10.9813         85
  10.9999         82
  11.0185         72
  11.0371         77
  11.0556         77
  11.0742         84
  11.0928         98
  11.1114        109
  11.1299         90
  11.1485         82
  11.1671         79
  11.1857         89
  11.2043         77
  11.2228         95
  11.2414         94
  11.2600         72
  11.2786         74
  11.2971         74
  11.3157         84
  11.3343         89
  11.3529         88
  11.3714         86
  11.3900         82
  11.4086         75
  11.4272         76
  11.4457        105
  11.4643         75
  11.4829         67
  11.5015         86
  11.5200         79
  11.5386         91
  11.5572         81
  11.5758         76
  11.5943         76
  11.6129         91
  11.6315         89
  11.6501        104
  11.6686         80
  11.6872         94
  11.7058         81
  11.7244         85
  11.7429         75
  11.7615         78
  11.7801         81
  11.7987         67
  11.8172         80
  11.8358         79
  11.8544         73
  11.8730         85
  11.8915         82
  11.9101         82
  11.9287         84
  11.9473         72
  11.9659         77
  11.9844         73
  12.0030         86
  12.0216         80
  12.0402         76
  12.0587         84
  12.0773         84
  12.0959         71
  12.1145         74
  12.1330         70
  12.1516         84
  12.1702         77
  12.1888         86
  12.2073         81
  12.2259         82
  12.2445         75
  12.2631         76
  12.2816         80
  12.3002         82
  12.3188         93
  12.3374         78
  12.3559         76
  12.3745         79
  12.3931         87
  12.4117         56
  12.4302         75
  12.4488         81
  12.4674         73
  12.4860         96
  12.5045         80
  12.5231         67
  12.5417         77
  12.5603         71
  12.5788         62
  12.5974         73
  12.6160         75
  12.6346         66
  12.6531         81
  12.6717         83
  12.6903         86
  12.7089         80
  12.7274         65
  12.7460         80
  12.7646         68
  12.7832         77
  12.8018         69
  12.8203         68
  12.8389         67
  12.8575         69
  12.8761         95
  12.8946         75
  12.9132         70
  12.9318         78
  12.9504         72
  12.9689         87
  12.9875         55
  13.0061         75
  13.0247         74
  13.0432         68
  13.0618         91
  13.0804         76
  13.0990         82
  13.1175         74
  13.1361         73
  13.1547         77
  13.1733         82
  13.1918         62
  13.2104         55
  13.2290         81
  13.2476         69
  13.2661         74
  13.2847         58
  13.3033         63
  13.3219         63
  13.3404         65
  13.3590         68
  13.3776         65
  13.3962         58
  13.4147         81
  13.4333         72
  13.4519         78
  13.4705         78
  13.4890         84
  13.5076         66
  13.5262         77
  13.5448         79
  13.5634         77
  13.5819         71
  13.6005         62
  13.6191         76
  13.6377         57
  13.6562         62
  13.6748         80
  13.6934         64
  13.7120         62
  13.7305         54
  13.7491         69
  13.7677         78
  13.7863         61
  13.8048         83
  13.8234         72
  13.8420         62
  13.8606         65
  13.8791         66
  13.8977         71
  13.9163         69
  13.9349         58
  13.9534         81
  13.9720         66
  13.9906         85
  14.0092         51
  14.0277         63
  14.0463         60
  14.0649         68
  14.0835         51
  14.1020         70
  14.1206         73
  14.1392         70
  14.1578         60
  14.1763         57
  14.1949         71
  14.2135         70
  14.2321         66
  14.2506         55
  14.2692         76
  14.2878         54
  14.3064         65
  14.3250         56
  14.3435         49
  14.3621         66
  14.3807         63
  14.3993         60
  14.4178         58
  14.4364         56
  14.4550         58
  14.4736         72
  14.4921         61
  14.5107         69
  14.5293         54
  14.5479         67
  14.5664         69
  14.5850         62
  14.6036         66
  14.6222         65
  14.6407         53
  14.6593         57
  14.6779         58
  14.6965         67
  14.7150         63
  14.7336         64
  14.7522         75
  14.7708         72
  14.7893         64
  14.8079         51
  14.8265         51
  14.8451         57
  14.8636         71
  14.8822         48
  14.9008         63
  14.9194         59
  14.9379         57
  14.9565         62
  14.9751         61
  14.9937         59
  15.0122         59
  15.0308         60
  15.0494         55
  15.0680         58
  15.0866         53
  15.1051         47
  15.1237         56
  15.1423         59
  15.1609         54
  15.1794         47
  15.1980         53
  15.2166         59
  15.2352         58
  15.2537         61
  15.2723         51
  15.2909         52
  15.3095         75
  15.3280         65
  15.3466         67
  15.3652         60
  15.3838         52
  15.4023         50
  15.4209         59
  15.4395         61
  15.4581         59
  15.4766         58
  15.4952         53
  15.5138         48
  15.5324         62
  15.5509         50
  15.5695         70
  15.5881         59
  15.6067         73
  15.6252         71
  15.6438         59
  15.6624         53
  15.6810         74
  15.6995         55
  15.7181         66
  15.7367         61
  15.7553         47
  15.7738         52
  15.7924         64
  15.8110         72
  15.8296         60
  15.8482         62
  15.8667         47
  15.8853         58
  15.9039         64
  15.9225         72
  15.9410         42
  15.9596         63
  15.9782         54
  15.9968         52
  16.0153         52
  16.0339         57
  16.0525         52
  16.0711         52
  16.0896         43
  16.1082         56
  16.1268         54
  16.1454         63
  16.1639         69
  16.1825         54
  16.2011         49
  16.2197         65
  16.2382         55
  16.2568         51
  16.2754         61
  16.2940         73
  16.3125         59
  16.3311         53
  16.3497         51
  16.3683         64
  16.3868         68
  16.4054         55
  16.4240         63
  16.4426         58
  16.4611         56
  16.4797         48
  16.4983         75
  16.5169         69
  16.5354         64
  16.5540         51
  16.5726         42
  16.5912         61
  16.6097         58
  16.6283         56
  16.6469         57
  16.6655         52
  16.6841         61
  16.7026         52
  16.7212         45
  16.7398         54
  16.7584         50
  16.7769         62
  16.7955         55
  16.8141         70
  16.8327         61
  16.8512         62
  16.8698         60
  16.8884         75
  16.9070         59
  16.9255         50
  16.9441         61
  16.9627         60
  16.9813         57
  16.9998         55
  17.0184         66
  17.0370         56
  17.0556         63
  17.0741         63
  17.0927         67
  17.1113         62
  17.1299         66
  17.1484         55
  17.1670         56
  17.1856         68
  17.2042         41
  17.2227         68
  17.2413         56
  17.2599         54
  17.2785         48
  17.2970         69
  17.3156         65
  17.3342         51
  17.3528         49
  17.3713         72
  17.3899         67
  17.4085         60
  17.4271         63
  17.4457         58
  17.4642         61
  17.4828         63
  17.5014         71
  17.5200         57
  17.5385         56
  17.5571         58
  17.5757         61
  17.5943         58
  17.6128         50
  17.6314         46
  17.6500         58
  17.6686         75
  17.6871         49
  17.7057         74
  17.7243         59
  17.7429         53
  17.7614         56
  17.7800         67
  17.7986         52
  17.8172         55
  17.8357         53
  17.8543         63
  17.8729         53
  17.8915         56
  17.9100         58
  17.9286         60
  17.9472         60
  17.9658         53
  17.9843         51
  18.0029         59
  18.0215         67
  18.0401         46
  18.0586         57
  18.0772         59
  18.0958         47
  18.1144         59
  18.1329         58
  18.1515         50
  18.1701         80
  18.1887         63
  18.2073         54
  18.2258         69
  18.2444         64
  18.2630         46
  18.2816         51
  18.3001         54
  18.3187         57
  18.3373         53
  18.3559         59
  18.3744         64
  18.3930         58
  18.4116         64
  18.4302         59
  18.4487         55
  18.4673         61
  18.4859         54
  18.5045         62
  18.5230         54
  18.5416         55
  18.5602         59
  18.5788         46
  18.5973         65
  18.6159         55
  18.6345         47
  18.6531         56
  18.6716         59
  18.6902         70
  18.7088         59
  18.7274         68
  18.7459         54
  18.7645         62
  18.7831         65
  18.8017         54
  18.8202         51
  18.8388         53
  18.8574         65
  18.8760         60
  18.8945         49
  18.9131         50
  18.9317         53
  18.9503         72
  18.9689         54
  18.9874         45
  19.0060         65
  19.0246         57
  19.0432         60
  19.0617         59
  19.0803         64
  19.0989         61
  19.1175         72
  19.1360         61
  19.1546         48
  19.1732         60
  19.1918         65
  19.2103         69
  19.2289         59
  19.2475         66
  19.2661         64
  19.2846         63
  19.3032         61
  19.3218         53
  19.3404         67
  19.3589         53
  19.3775         65
  19.3961         54
  19.4147         78
  19.4332         73
  19.4518         65
  19.4704         68
  19.4890         68
  19.5075         68
  19.5261         62
  19.5447         62
  19.5633         69
  19.5818         65
  19.6004         64
  19.6190         62
  19.6376         52
  19.6561         72
  19.6747         64
  19.6933         64
  19.7119         64
  19.7305         61
  19.7490         62
  19.7676         74
  19.7862         75
  19.8048         60
  19.8233         66
  19.8419         60
  19.8605         64
  19.8791         61
  19.8976         46
  19.9162         52
  19.9348         59
  19.9534         59
  19.9719         63
  19.9905         66
  20.0091         73
  20.0277         68
  20.0462         60
  20.0648         53
  20.0834         67
  20.1020         75
  20.1205         75
  20.1391         62
  20.1577         45
  20.1763         50
  20.1948         63
  20.2134         63
  20.2320         51
  20.2506         68
  20.2691         62
  20.2877         56
  20.3063         69
  20.3249         67
  20.3434         62
  20.3620         65
  20.3806         57
  20.3992         51
  20.4177         58
  20.4363         71
  20.4549         51
  20.4735         63
