; (content of file Y:\Sam\Apurva-07-20-2022\puck1\ML_20220721_34_SJD_0_LaB6-4min.raw)
_FILEVERSION = 3
_SAMPLE = ML_20220721_34_SJD_0_LaB6-4min
_+SAMPLE = 
_SITE = USA
_USER = Administrator
_GONIOMETER_CODE = 20
; Goniometer : D8 theta/2theta, stage : Unknown
_ATTACHMENTS_CODE = 0
_GONIOMETER_RADIUS = 200.5
_FIXED_DIVSLIT = 0.6
_FIXED_SAMPLESLIT = 0
_SOLLER_SLITS = 2
_FIXED_DETSLIT = 9.55
_MONOCHROMATOR = 0
; Incident beam monochromator : None
_SOLLER_SLITS_2 = N
_THIN_FILM = N
_BETA_FILTER = Y
_FIXED_ANTISLIT = 5.89
_ANALYZER_CODE = 0
; Received beam analyzer : None
_DATEMEASURED = "25-Jul-2022 16:24:55"
_WL_UNIT = A
_WL1 = 1.5406
_WL2 = 1.54439
_WL3 = 1.39222
_WLRATIO = 0.5
_ANODE = Cu
_V4_INF_CREATOR = XRDWizard
_V4_INF_CREATOR_VERSION = V2.9.0.22
_V4_INF_WIZARD_VERSION = V2.9.0.22
_V4_INF_WIZARD_ADDINS = V2.9.0.22
_V4_INF_WIZARD_DOCTYPE = XRD
_V4_INF_OSUSER = McQueenLab
_V4_INF_USER = Administrator
_V4_INF_SITE = USA
_V4_INF_SAMPLEID = ML_20220721_34_SJD_0_LaB6-4min

; Data for range 1
_DRIVE = COUPLED
_STEPTIME = 11.28
_STEPSIZE = 0.0185756
_STEPMODE = C
_START = 5
_THETA = 2.5
_2THETA = 5
_KHI = 0
_PHI = 0
_X = 0
_Y = 0
_Z = 0
_DETECTOR = 5
; Detector type : Unknown
_DETECTORSLIT = unkn
_AUX1 = 0
_AUX2 = 0
_AUX3 = 0
_TIMESTARTED = 15
_TEMP_RATE = -1
_TEMP_DELAY = -1
_KV = 40
_MA = 40
_RANGE_WL = 1.5406
_3DPLANE = 0
_V4_ADDITIONALDETECTOR = 257
_V4_PSD2THETA = 3.3675
_V4_PSDCHANNEL1 = 0
_V4_PSDAPERTURE = 12.68
_V4_PSDTYPE = 5
_V4_PSDFIXED = 0
_V4_COUNTERS_MASK = 4096
_V4_DRIVES_MASK = 0
_V4_ENCODERS_MASK = 0
_2THETACOUNTS = 1
; 2THETA  PSD
   5.0000        263
   5.0186        288
   5.0372        267
   5.0557        247
   5.0743        266
   5.0929        255
   5.1115        267
   5.1300        261
   5.1486        252
   5.1672        255
   5.1858        252
   5.2043        266
   5.2229        267
   5.2415        268
   5.2601        229
   5.2786        252
   5.2972        251
   5.3158        253
   5.3344        253
   5.3529        237
   5.3715        256
   5.3901        234
   5.4087        218
   5.4272        218
   5.4458        231
   5.4644        218
   5.4830        225
   5.5015        213
   5.5201        247
   5.5387        257
   5.5573        230
   5.5758        230
   5.5944        252
   5.6130        239
   5.6316        213
   5.6501        255
   5.6687        214
   5.6873        211
   5.7059        234
   5.7244        212
   5.7430        208
   5.7616        205
   5.7802        219
   5.7988        214
   5.8173        209
   5.8359        201
   5.8545        203
   5.8731        206
   5.8916        185
   5.9102        201
   5.9288        215
   5.9474        193
   5.9659        187
   5.9845        192
   6.0031        183
   6.0217        184
   6.0402        187
   6.0588        183
   6.0774        171
   6.0960        228
   6.1145        194
   6.1331        185
   6.1517        187
   6.1703        216
   6.1888        176
   6.2074        189
   6.2260        183
   6.2446        176
   6.2631        211
   6.2817        187
   6.3003        172
   6.3189        194
   6.3374        180
   6.3560        190
   6.3746        187
   6.3932        185
   6.4117        160
   6.4303        170
   6.4489        177
   6.4675        161
   6.4860        180
   6.5046        183
   6.5232        188
   6.5418        182
   6.5604        169
   6.5789        199
   6.5975        157
   6.6161        177
   6.6347        156
   6.6532        187
   6.6718        167
   6.6904        180
   6.7090        168
   6.7275        181
   6.7461        175
   6.7647        160
   6.7833        179
   6.8018        159
   6.8204        170
   6.8390        158
   6.8576        174
   6.8761        161
   6.8947        168
   6.9133        176
   6.9319        164
   6.9504        169
   6.9690        166
   6.9876        169
   7.0062        175
   7.0247        199
   7.0433        156
   7.0619        169
   7.0805        159
   7.0990        180
   7.1176        155
   7.1362        159
   7.1548        184
   7.1733        167
   7.1919        169
   7.2105        179
   7.2291        154
   7.2476        175
   7.2662        174
   7.2848        147
   7.3034        158
   7.3220        170
   7.3405        154
   7.3591        174
   7.3777        172
   7.3963        133
   7.4148        170
   7.4334        140
   7.4520        164
   7.4706        137
   7.4891        167
   7.5077        149
   7.5263        177
   7.5449        178
   7.5634        191
   7.5820        160
   7.6006        168
   7.6192        186
   7.6377        185
   7.6563        179
   7.6749        191
   7.6935        163
   7.7120        197
   7.7306        189
   7.7492        198
   7.7678        210
   7.7863        192
   7.8049        170
   7.8235        198
   7.8421        184
   7.8606        178
   7.8792        179
   7.8978        173
   7.9164        164
   7.9349        187
   7.9535        201
   7.9721        201
   7.9907        203
   8.0092        179
   8.0278        194
   8.0464        196
   8.0650        192
   8.0835        202
   8.1021        196
   8.1207        200
   8.1393        192
   8.1579        197
   8.1764        199
   8.1950        200
   8.2136        190
   8.2322        193
   8.2507        171
   8.2693        209
   8.2879        235
   8.3065        170
   8.3250        215
   8.3436        220
   8.3622        209
   8.3808        182
   8.3993        199
   8.4179        209
   8.4365        196
   8.4551        174
   8.4736        223
   8.4922        210
   8.5108        204
   8.5294        221
   8.5479        203
   8.5665        209
   8.5851        217
   8.6037        222
   8.6222        214
   8.6408        217
   8.6594        181
   8.6780        221
   8.6965        196
   8.7151        241
   8.7337        247
   8.7523        187
   8.7708        215
   8.7894        203
   8.8080        197
   8.8266        227
   8.8451        205
   8.8637        210
   8.8823        239
   8.9009        206
   8.9195        221
   8.9380        230
   8.9566        181
   8.9752        227
   8.9938        202
   9.0123        215
   9.0309        193
   9.0495        224
   9.0681        205
   9.0866        214
   9.1052        228
   9.1238        235
   9.1424        201
   9.1609        210
   9.1795        210
   9.1981        212
   9.2167        222
   9.2352        229
   9.2538        204
   9.2724        211
   9.2910        230
   9.3095        232
   9.3281        217
   9.3467        209
   9.3653        218
   9.3838        209
   9.4024        235
   9.4210        202
   9.4396        204
   9.4581        237
   9.4767        260
   9.4953        217
   9.5139        228
   9.5324        208
   9.5510        205
   9.5696        226
   9.5882        228
   9.6067        230
   9.6253        216
   9.6439        231
   9.6625        243
   9.6811        243
   9.6996        224
   9.7182        218
   9.7368        226
   9.7554        221
   9.7739        200
   9.7925        239
   9.8111        234
   9.8297        213
   9.8482        225
   9.8668        266
   9.8854        223
   9.9040        243
   9.9225        238
   9.9411        239
   9.9597        249
   9.9783        219
   9.9968        245
  10.0154        225
  10.0340        267
  10.0526        235
  10.0711        254
  10.0897        255
  10.1083        249
  10.1269        243
  10.1454        233
  10.1640        245
  10.1826        225
  10.2012        261
  10.2197        260
  10.2383        219
  10.2569        219
  10.2755        233
  10.2940        254
  10.3126        251
  10.3312        223
  10.3498        225
  10.3683        284
  10.3869        218
  10.4055        232
  10.4241        229
  10.4427        256
  10.4612        267
  10.4798        258
  10.4984        235
  10.5170        251
  10.5355        255
  10.5541        265
  10.5727        201
  10.5913        217
  10.6098        255
  10.6284        238
  10.6470        229
  10.6656        273
  10.6841        239
  10.7027        234
  10.7213        241
  10.7399        238
  10.7584        241
  10.7770        246
  10.7956        244
  10.8142        227
  10.8327        246
  10.8513        235
  10.8699        216
  10.8885        247
  10.9070        238
  10.9256        261
  10.9442        212
  10.9628        256
  10.9813        240
  10.9999        234
  11.0185        210
  11.0371        216
  11.0556        226
  11.0742        229
  11.0928        244
  11.1114        254
  11.1299        241
  11.1485        224
  11.1671        212
  11.1857        248
  11.2043        242
  11.2228        241
  11.2414        235
  11.2600        238
  11.2786        238
  11.2971        237
  11.3157        215
  11.3343        247
  11.3529        254
  11.3714        241
  11.3900        264
  11.4086        253
  11.4272        235
  11.4457        230
  11.4643        237
  11.4829        276
  11.5015        232
  11.5200        240
  11.5386        255
  11.5572        222
  11.5758        241
  11.5943        238
  11.6129        225
  11.6315        227
  11.6501        225
  11.6686        252
  11.6872        234
  11.7058        217
  11.7244        247
  11.7429        212
  11.7615        252
  11.7801        244
  11.7987        228
  11.8172        240
  11.8358        217
  11.8544        225
  11.8730        208
  11.8915        227
  11.9101        220
  11.9287        220
  11.9473        214
  11.9659        201
  11.9844        246
  12.0030        245
  12.0216        205
  12.0402        247
  12.0587        221
  12.0773        218
  12.0959        227
  12.1145        222
  12.1330        225
  12.1516        238
  12.1702        220
  12.1888        229
  12.2073        214
  12.2259        206
  12.2445        200
  12.2631        230
  12.2816        244
  12.3002        247
  12.3188        220
  12.3374        202
  12.3559        230
  12.3745        231
  12.3931        201
  12.4117        215
  12.4302        222
  12.4488        193
  12.4674        228
  12.4860        236
  12.5045        242
  12.5231        200
  12.5417        218
  12.5603        204
  12.5788        235
  12.5974        226
  12.6160        219
  12.6346        224
  12.6531        201
  12.6717        212
  12.6903        182
  12.7089        203
  12.7274        206
  12.7460        195
  12.7646        207
  12.7832        210
  12.8018        211
  12.8203        205
  12.8389        174
  12.8575        225
  12.8761        226
  12.8946        209
  12.9132        200
  12.9318        199
  12.9504        221
  12.9689        196
  12.9875        222
  13.0061        221
  13.0247        224
  13.0432        213
  13.0618        206
  13.0804        200
  13.0990        223
  13.1175        207
  13.1361        184
  13.1547        200
  13.1733        207
  13.1918        205
  13.2104        224
  13.2290        208
  13.2476        202
  13.2661        228
  13.2847        189
  13.3033        189
  13.3219        212
  13.3404        218
  13.3590        184
  13.3776        201
  13.3962        177
  13.4147        223
  13.4333        201
  13.4519        205
  13.4705        228
  13.4890        196
  13.5076        196
  13.5262        173
  13.5448        212
  13.5634        208
  13.5819        187
  13.6005        177
  13.6191        172
  13.6377        204
  13.6562        216
  13.6748        191
  13.6934        210
  13.7120        202
  13.7305        211
  13.7491        183
  13.7677        177
  13.7863        209
  13.8048        200
  13.8234        155
  13.8420        187
  13.8606        215
  13.8791        183
  13.8977        186
  13.9163        199
  13.9349        184
  13.9534        196
  13.9720        198
  13.9906        195
  14.0092        175
  14.0277        208
  14.0463        163
  14.0649        189
  14.0835        183
  14.1020        185
  14.1206        190
  14.1392        177
  14.1578        155
  14.1763        197
  14.1949        178
  14.2135        200
  14.2321        191
  14.2506        167
  14.2692        189
  14.2878        178
  14.3064        199
  14.3250        180
  14.3435        158
  14.3621        193
  14.3807        185
  14.3993        188
  14.4178        167
  14.4364        172
  14.4550        186
  14.4736        165
  14.4921        177
  14.5107        157
  14.5293        175
  14.5479        160
  14.5664        156
  14.5850        173
  14.6036        167
  14.6222        176
  14.6407        180
  14.6593        176
  14.6779        170
  14.6965        160
  14.7150        169
  14.7336        159
  14.7522        182
  14.7708        159
  14.7893        176
  14.8079        154
  14.8265        157
  14.8451        169
  14.8636        189
  14.8822        157
  14.9008        169
  14.9194        173
  14.9379        165
  14.9565        172
  14.9751        159
  14.9937        182
  15.0122        159
  15.0308        173
  15.0494        165
  15.0680        169
  15.0866        212
  15.1051        157
  15.1237        199
  15.1423        156
  15.1609        144
  15.1794        166
  15.1980        180
  15.2166        161
  15.2352        173
  15.2537        166
  15.2723        162
  15.2909        197
  15.3095        157
  15.3280        155
  15.3466        180
  15.3652        170
  15.3838        168
  15.4023        195
  15.4209        170
  15.4395        143
  15.4581        172
  15.4766        169
  15.4952        194
  15.5138        167
  15.5324        165
  15.5509        184
  15.5695        155
  15.5881        148
  15.6067        158
  15.6252        193
  15.6438        170
  15.6624        183
  15.6810        180
  15.6995        184
  15.7181        156
  15.7367        176
  15.7553        163
  15.7738        160
  15.7924        184
  15.8110        176
  15.8296        185
  15.8482        163
  15.8667        156
  15.8853        157
  15.9039        165
  15.9225        167
  15.9410        157
  15.9596        154
  15.9782        162
  15.9968        182
  16.0153        175
  16.0339        174
  16.0525        154
  16.0711        150
  16.0896        162
  16.1082        153
  16.1268        166
  16.1454        130
  16.1639        173
  16.1825        169
  16.2011        176
  16.2197        149
  16.2382        173
  16.2568        163
  16.2754        127
  16.2940        166
  16.3125        178
  16.3311        156
  16.3497        149
  16.3683        173
  16.3868        170
  16.4054        149
  16.4240        153
  16.4426        155
  16.4611        163
  16.4797        161
  16.4983        177
  16.5169        161
  16.5354        150
  16.5540        155
  16.5726        162
  16.5912        161
  16.6097        167
  16.6283        151
  16.6469        145
  16.6655        166
  16.6841        190
  16.7026        170
  16.7212        160
  16.7398        170
  16.7584        163
  16.7769        167
  16.7955        154
  16.8141        183
  16.8327        159
  16.8512        145
  16.8698        182
  16.8884        155
  16.9070        160
  16.9255        161
  16.9441        152
  16.9627        167
  16.9813        165
  16.9998        171
  17.0184        164
  17.0370        159
  17.0556        141
  17.0741        177
  17.0927        171
  17.1113        153
  17.1299        138
  17.1484        190
  17.1670        165
  17.1856        176
  17.2042        179
  17.2227        155
  17.2413        165
  17.2599        169
  17.2785        177
  17.2970        155
  17.3156        158
  17.3342        162
  17.3528        164
  17.3713        169
  17.3899        144
  17.4085        176
  17.4271        176
  17.4457        150
  17.4642        169
  17.4828        167
  17.5014        166
  17.5200        151
  17.5385        155
  17.5571        170
  17.5757        178
  17.5943        193
  17.6128        145
  17.6314        179
  17.6500        167
  17.6686        158
  17.6871        169
  17.7057        152
  17.7243        189
  17.7429        168
  17.7614        181
  17.7800        156
  17.7986        151
  17.8172        154
  17.8357        171
  17.8543        143
  17.8729        160
  17.8915        141
  17.9100        147
  17.9286        138
  17.9472        179
  17.9658        159
  17.9843        160
  18.0029        185
  18.0215        163
  18.0401        162
  18.0586        179
  18.0772        156
  18.0958        171
  18.1144        151
  18.1329        164
  18.1515        167
  18.1701        150
  18.1887        164
  18.2073        171
  18.2258        172
  18.2444        171
  18.2630        180
  18.2816        202
  18.3001        176
  18.3187        169
  18.3373        174
  18.3559        151
  18.3744        147
  18.3930        150
  18.4116        153
  18.4302        173
  18.4487        169
  18.4673        159
  18.4859        152
  18.5045        168
  18.5230        152
  18.5416        157
  18.5602        161
  18.5788        158
  18.5973        162
  18.6159        147
  18.6345        170
  18.6531        181
  18.6716        185
  18.6902        166
  18.7088        172
  18.7274        166
  18.7459        156
  18.7645        186
  18.7831        179
  18.8017        162
  18.8202        178
  18.8388        173
  18.8574        188
  18.8760        189
  18.8945        160
  18.9131        181
  18.9317        177
  18.9503        174
  18.9689        153
  18.9874        186
  19.0060        160
  19.0246        147
  19.0432        178
  19.0617        157
  19.0803        146
  19.0989        159
  19.1175        173
  19.1360        194
  19.1546        179
  19.1732        167
  19.1918        182
  19.2103        182
  19.2289        144
  19.2475        160
  19.2661        166
  19.2846        164
  19.3032        162
  19.3218        176
  19.3404        180
  19.3589        165
  19.3775        170
  19.3961        164
  19.4147        184
  19.4332        192
  19.4518        184
  19.4704        193
  19.4890        191
  19.5075        175
  19.5261        148
  19.5447        165
  19.5633        179
  19.5818        193
  19.6004        175
  19.6190        191
  19.6376        151
  19.6561        178
  19.6747        204
  19.6933        177
  19.7119        157
  19.7305        165
  19.7490        177
  19.7676        167
  19.7862        190
  19.8048        177
  19.8233        165
  19.8419        166
  19.8605        194
  19.8791        166
  19.8976        170
  19.9162        153
  19.9348        170
  19.9534        163
  19.9719        196
  19.9905        195
  20.0091        183
  20.0277        179
  20.0462        171
  20.0648        176
  20.0834        206
  20.1020        181
  20.1205        172
  20.1391        205
  20.1577        164
  20.1763        191
  20.1948        170
  20.2134        182
  20.2320        191
  20.2506        210
  20.2691        179
  20.2877        177
  20.3063        170
  20.3249        168
  20.3434        164
  20.3620        172
  20.3806        184
  20.3992        177
  20.4177        186
  20.4363        196
  20.4549        187
  20.4735        160
