; (content of file Y:\Sam\Apurva-07-20-2022\puck4\ML_20220718_1_SJD_0_LaB6-2min.raw)
_FILEVERSION = 3
_SAMPLE = ML_20220718_1_SJD_0_LaB6-2mi
_+SAMPLE = 
_SITE = USA
_USER = Administrator
_GONIOMETER_CODE = 20
; Goniometer : D8 theta/2theta, stage : Unknown
_ATTACHMENTS_CODE = 0
_GONIOMETER_RADIUS = 200.5
_FIXED_DIVSLIT = 0.6
_FIXED_SAMPLESLIT = 0
_SOLLER_SLITS = 2
_FIXED_DETSLIT = 9.55
_MONOCHROMATOR = 0
; Incident beam monochromator : None
_SOLLER_SLITS_2 = N
_THIN_FILM = N
_BETA_FILTER = Y
_FIXED_ANTISLIT = 5.89
_ANALYZER_CODE = 0
; Received beam analyzer : None
_DATEMEASURED = "21-Jul-2022 02:49:06"
_WL_UNIT = A
_WL1 = 1.5406
_WL2 = 1.54439
_WL3 = 1.39222
_WLRATIO = 0.5
_ANODE = Cu
_V4_INF_CREATOR = XRDWizard
_V4_INF_CREATOR_VERSION = V2.9.0.22
_V4_INF_WIZARD_VERSION = V2.9.0.22
_V4_INF_WIZARD_ADDINS = V2.9.0.22
_V4_INF_WIZARD_DOCTYPE = XRD
_V4_INF_OSUSER = McQueenLab
_V4_INF_USER = Administrator
_V4_INF_SITE = USA
_V4_INF_SAMPLEID = ML_20220718_1_SJD_0_LaB6-2mi

; Data for range 1
_DRIVE = COUPLED
_STEPTIME = 5.64
_STEPSIZE = 0.0185756
_STEPMODE = C
_START = 5
_THETA = 2.5
_2THETA = 5
_KHI = 0
_PHI = 0
_X = 0
_Y = 0
_Z = 0
_DETECTOR = 5
; Detector type : Unknown
_DETECTORSLIT = unkn
_AUX1 = 0
_AUX2 = 0
_AUX3 = 0
_TIMESTARTED = 15
_TEMP_RATE = -1
_TEMP_DELAY = -1
_KV = 40
_MA = 40
_RANGE_WL = 1.5406
_3DPLANE = 0
_V4_ADDITIONALDETECTOR = 257
_V4_PSD2THETA = 3.3708
_V4_PSDCHANNEL1 = 0
_V4_PSDAPERTURE = 12.68
_V4_PSDTYPE = 5
_V4_PSDFIXED = 0
_V4_COUNTERS_MASK = 4096
_V4_DRIVES_MASK = 0
_V4_ENCODERS_MASK = 0
_2THETACOUNTS = 1
; 2THETA  PSD
   5.0000        159
   5.0186        146
   5.0372        138
   5.0557        128
   5.0743        114
   5.0929        148
   5.1115        126
   5.1300        108
   5.1486        110
   5.1672        127
   5.1858        121
   5.2043        138
   5.2229        114
   5.2415        123
   5.2601        113
   5.2786        137
   5.2972        131
   5.3158        107
   5.3344        129
   5.3529        103
   5.3715        112
   5.3901        125
   5.4087        123
   5.4272        119
   5.4458        118
   5.4644        101
   5.4830        118
   5.5015        117
   5.5201        105
   5.5387        103
   5.5573        103
   5.5758        106
   5.5944        126
   5.6130        121
   5.6316         88
   5.6501        115
   5.6687        108
   5.6873        114
   5.7059        113
   5.7244        110
   5.7430        113
   5.7616        104
   5.7802         87
   5.7988        114
   5.8173         94
   5.8359        116
   5.8545        124
   5.8731         98
   5.8916        105
   5.9102         95
   5.9288        105
   5.9474        100
   5.9659        115
   5.9845        100
   6.0031         83
   6.0217         97
   6.0402        109
   6.0588        102
   6.0774         96
   6.0960         99
   6.1145         94
   6.1331        106
   6.1517        100
   6.1703        100
   6.1888         95
   6.2074         76
   6.2260         81
   6.2446         98
   6.2631         94
   6.2817        100
   6.3003        100
   6.3189         79
   6.3374        103
   6.3560         92
   6.3746         79
   6.3932         80
   6.4117         79
   6.4303         85
   6.4489         75
   6.4675         92
   6.4860         85
   6.5046         77
   6.5232         94
   6.5418         82
   6.5604         87
   6.5789         91
   6.5975         65
   6.6161         76
   6.6347         89
   6.6532         77
   6.6718         81
   6.6904         88
   6.7090         84
   6.7275         96
   6.7461         84
   6.7647         92
   6.7833         81
   6.8018         91
   6.8204         79
   6.8390         82
   6.8576         73
   6.8761         76
   6.8947         77
   6.9133         81
   6.9319         78
   6.9504         75
   6.9690         77
   6.9876         78
   7.0062         73
   7.0247         63
   7.0433         75
   7.0619         84
   7.0805         88
   7.0990         89
   7.1176         69
   7.1362         73
   7.1548         62
   7.1733         81
   7.1919         85
   7.2105         77
   7.2291         65
   7.2476         88
   7.2662         71
   7.2848         61
   7.3034         66
   7.3220         75
   7.3405         79
   7.3591         84
   7.3777         80
   7.3963         71
   7.4148         72
   7.4334         62
   7.4520         87
   7.4706         85
   7.4891         91
   7.5077         91
   7.5263         94
   7.5449         90
   7.5634         78
   7.5820         85
   7.6006         87
   7.6192         88
   7.6377         83
   7.6563         84
   7.6749         74
   7.6935         81
   7.7120         96
   7.7306         87
   7.7492         86
   7.7678         86
   7.7863         80
   7.8049         86
   7.8235         95
   7.8421         89
   7.8606         84
   7.8792         74
   7.8978         78
   7.9164         93
   7.9349         93
   7.9535         92
   7.9721        108
   7.9907         91
   8.0092         96
   8.0278         94
   8.0464         95
   8.0650         88
   8.0835         97
   8.1021         89
   8.1207         90
   8.1393         80
   8.1579         80
   8.1764         89
   8.1950         93
   8.2136         92
   8.2322         82
   8.2507         84
   8.2693         94
   8.2879        117
   8.3065        104
   8.3250         98
   8.3436         92
   8.3622         91
   8.3808         86
   8.3993        103
   8.4179         91
   8.4365         88
   8.4551        107
   8.4736         73
   8.4922         79
   8.5108         91
   8.5294         91
   8.5479         98
   8.5665         97
   8.5851        107
   8.6037         83
   8.6222         89
   8.6408         96
   8.6594         99
   8.6780         91
   8.6965        109
   8.7151         84
   8.7337         84
   8.7523        108
   8.7708        118
   8.7894        120
   8.8080        115
   8.8266        104
   8.8451         92
   8.8637        100
   8.8823        118
   8.9009         97
   8.9195        101
   8.9380         96
   8.9566        115
   8.9752        111
   8.9938         93
   9.0123         97
   9.0309        102
   9.0495        101
   9.0681        102
   9.0866         79
   9.1052        109
   9.1238         85
   9.1424         98
   9.1609        118
   9.1795         96
   9.1981        143
   9.2167        112
   9.2352         98
   9.2538        112
   9.2724         98
   9.2910        106
   9.3095        109
   9.3281        103
   9.3467         91
   9.3653        103
   9.3838        107
   9.4024        103
   9.4210        122
   9.4396        128
   9.4581         94
   9.4767        115
   9.4953         96
   9.5139         98
   9.5324        127
   9.5510         93
   9.5696        104
   9.5882        107
   9.6067        106
   9.6253        120
   9.6439         95
   9.6625        125
   9.6811        119
   9.6996         98
   9.7182        105
   9.7368         92
   9.7554        115
   9.7739        126
   9.7925         97
   9.8111        122
   9.8297        119
   9.8482        115
   9.8668        116
   9.8854        118
   9.9040        102
   9.9225        113
   9.9411        106
   9.9597        109
   9.9783        105
   9.9968        108
  10.0154        113
  10.0340        105
  10.0526        123
  10.0711        120
  10.0897        119
  10.1083        127
  10.1269        108
  10.1454        144
  10.1640        132
  10.1826        111
  10.2012        138
  10.2197        113
  10.2383        123
  10.2569        107
  10.2755        126
  10.2940         98
  10.3126        134
  10.3312        112
  10.3498        108
  10.3683        132
  10.3869        100
  10.4055        122
  10.4241        122
  10.4427        124
  10.4612        104
  10.4798        112
  10.4984        133
  10.5170        120
  10.5355        111
  10.5541        102
  10.5727         97
  10.5913        108
  10.6098        120
  10.6284        119
  10.6470        123
  10.6656        104
  10.6841        120
  10.7027        110
  10.7213        117
  10.7399        127
  10.7584        104
  10.7770        129
  10.7956        101
  10.8142        109
  10.8327        118
  10.8513        110
  10.8699        112
  10.8885        103
  10.9070        133
  10.9256        124
  10.9442        127
  10.9628        107
  10.9813        101
  10.9999        121
  11.0185        122
  11.0371        107
  11.0556         95
  11.0742        127
  11.0928        109
  11.1114         99
  11.1299        106
  11.1485        127
  11.1671        119
  11.1857        114
  11.2043        108
  11.2228        113
  11.2414        101
  11.2600        114
  11.2786        112
  11.2971        127
  11.3157        112
  11.3343        112
  11.3529         97
  11.3714        120
  11.3900        119
  11.4086         89
  11.4272        131
  11.4457        101
  11.4643        133
  11.4829        127
  11.5015        114
  11.5200        108
  11.5386        120
  11.5572         95
  11.5758        128
  11.5943         99
  11.6129        129
  11.6315         99
  11.6501        105
  11.6686        111
  11.6872        101
  11.7058        107
  11.7244        118
  11.7429        122
  11.7615        126
  11.7801         90
  11.7987        117
  11.8172        107
  11.8358        111
  11.8544         90
  11.8730        107
  11.8915        120
  11.9101        113
  11.9287        106
  11.9473        115
  11.9659        117
  11.9844        109
  12.0030        111
  12.0216         99
  12.0402        118
  12.0587        124
  12.0773        106
  12.0959        110
  12.1145        115
  12.1330        101
  12.1516        100
  12.1702        129
  12.1888        119
  12.2073         99
  12.2259        100
  12.2445         95
  12.2631         98
  12.2816         97
  12.3002        106
  12.3188        115
  12.3374        104
  12.3559        112
  12.3745         98
  12.3931        102
  12.4117        116
  12.4302        108
  12.4488        116
  12.4674        121
  12.4860        118
  12.5045         88
  12.5231        108
  12.5417        101
  12.5603         89
  12.5788        104
  12.5974        106
  12.6160        101
  12.6346        115
  12.6531        101
  12.6717         91
  12.6903         78
  12.7089        104
  12.7274        120
  12.7460         88
  12.7646        101
  12.7832        104
  12.8018        106
  12.8203        109
  12.8389        104
  12.8575         97
  12.8761         98
  12.8946         98
  12.9132         92
  12.9318        112
  12.9504         97
  12.9689        107
  12.9875         77
  13.0061         94
  13.0247         72
  13.0432         92
  13.0618        107
  13.0804         98
  13.0990         84
  13.1175        100
  13.1361         98
  13.1547         96
  13.1733         83
  13.1918         95
  13.2104        103
  13.2290         86
  13.2476        106
  13.2661         82
  13.2847        106
  13.3033        102
  13.3219         81
  13.3404         97
  13.3590         98
  13.3776         83
  13.3962        100
  13.4147         95
  13.4333         75
  13.4519         83
  13.4705         87
  13.4890         98
  13.5076        103
  13.5262         86
  13.5448        101
  13.5634        100
  13.5819         89
  13.6005        100
  13.6191        102
  13.6377         85
  13.6562         89
  13.6748        124
  13.6934         92
  13.7120         81
  13.7305         86
  13.7491         83
  13.7677         86
  13.7863         95
  13.8048         98
  13.8234         93
  13.8420         88
  13.8606         82
  13.8791         98
  13.8977         91
  13.9163         83
  13.9349         85
  13.9534         98
  13.9720         89
  13.9906         79
  14.0092         85
  14.0277         83
  14.0463         95
  14.0649         82
  14.0835         83
  14.1020         77
  14.1206         79
  14.1392         75
  14.1578         87
  14.1763         80
  14.1949         89
  14.2135         84
  14.2321         90
  14.2506         99
  14.2692         94
  14.2878         88
  14.3064         79
  14.3250         81
  14.3435         69
  14.3621        121
  14.3807         87
  14.3993        102
  14.4178         73
  14.4364         84
  14.4550         80
  14.4736         85
  14.4921         73
  14.5107         74
  14.5293         64
  14.5479         88
  14.5664        100
  14.5850         72
  14.6036         82
  14.6222         86
  14.6407         71
  14.6593         75
  14.6779         88
  14.6965         68
  14.7150         86
  14.7336         79
  14.7522         82
  14.7708        100
  14.7893         81
  14.8079         77
  14.8265        102
  14.8451         75
  14.8636         84
  14.8822         79
  14.9008         96
  14.9194         72
  14.9379         70
  14.9565         73
  14.9751         69
  14.9937         93
  15.0122         68
  15.0308         95
  15.0494         84
  15.0680         74
  15.0866         85
  15.1051         69
  15.1237         68
  15.1423         86
  15.1609         74
  15.1794         88
  15.1980         80
  15.2166         72
  15.2352         97
  15.2537         83
  15.2723         64
  15.2909         85
  15.3095         81
  15.3280         87
  15.3466         85
  15.3652         79
  15.3838         85
  15.4023         59
  15.4209         84
  15.4395         76
  15.4581         76
  15.4766         85
  15.4952         80
  15.5138         84
  15.5324         97
  15.5509         75
  15.5695         87
  15.5881         64
  15.6067         89
  15.6252         75
  15.6438         74
  15.6624         79
  15.6810         76
  15.6995         86
  15.7181         87
  15.7367         89
  15.7553         85
  15.7738         92
  15.7924         79
  15.8110         73
  15.8296         84
  15.8482         87
  15.8667         82
  15.8853         88
  15.9039         75
  15.9225         75
  15.9410         79
  15.9596         84
  15.9782         77
  15.9968         80
  16.0153         62
  16.0339         81
  16.0525         87
  16.0711         82
  16.0896         84
  16.1082         80
  16.1268         90
  16.1454         73
  16.1639         83
  16.1825         73
  16.2011         81
  16.2197         71
  16.2382         78
  16.2568         79
  16.2754         74
  16.2940         84
  16.3125         65
  16.3311         92
  16.3497         91
  16.3683         91
  16.3868         85
  16.4054         73
  16.4240         85
  16.4426         88
  16.4611         78
  16.4797         66
  16.4983         80
  16.5169         64
  16.5354         87
  16.5540         80
  16.5726         96
  16.5912         88
  16.6097         86
  16.6283         77
  16.6469         69
  16.6655         81
  16.6841         73
  16.7026         77
  16.7212         69
  16.7398         85
  16.7584         71
  16.7769         81
  16.7955         82
  16.8141         78
  16.8327         83
  16.8512         76
  16.8698         84
  16.8884         64
  16.9070         81
  16.9255         85
  16.9441         78
  16.9627         81
  16.9813         76
  16.9998         86
  17.0184         82
  17.0370         76
  17.0556         82
  17.0741         78
  17.0927         75
  17.1113         82
  17.1299         73
  17.1484         78
  17.1670         92
  17.1856         71
  17.2042         60
  17.2227         74
  17.2413         69
  17.2599         74
  17.2785         68
  17.2970         87
  17.3156         91
  17.3342         82
  17.3528         77
  17.3713        103
  17.3899        102
  17.4085         79
  17.4271         88
  17.4457         83
  17.4642         82
  17.4828         74
  17.5014         64
  17.5200         79
  17.5385         81
  17.5571         72
  17.5757         75
  17.5943         81
  17.6128         97
  17.6314         73
  17.6500         75
  17.6686         95
  17.6871         82
  17.7057         70
  17.7243         70
  17.7429         78
  17.7614         84
  17.7800         79
  17.7986         94
  17.8172         82
  17.8357         73
  17.8543         76
  17.8729         74
  17.8915         70
  17.9100         82
  17.9286         79
  17.9472         75
  17.9658         63
  17.9843         71
  18.0029         77
  18.0215         80
  18.0401         78
  18.0586         86
  18.0772         74
  18.0958         75
  18.1144         82
  18.1329         81
  18.1515         71
  18.1701         93
  18.1887         82
  18.2073         85
  18.2258         84
  18.2444         83
  18.2630         77
  18.2816        105
  18.3001         79
  18.3187         89
  18.3373         90
  18.3559         72
  18.3744         88
  18.3930         76
  18.4116         89
  18.4302         75
  18.4487         73
  18.4673         76
  18.4859         77
  18.5045         83
  18.5230         91
  18.5416         77
  18.5602         85
  18.5788         71
  18.5973         74
  18.6159         92
  18.6345         78
  18.6531         85
  18.6716         87
  18.6902         98
  18.7088         74
  18.7274         73
  18.7459         72
  18.7645         91
  18.7831         82
  18.8017         77
  18.8202         82
  18.8388         80
  18.8574         87
  18.8760         83
  18.8945         85
  18.9131         80
  18.9317        105
  18.9503         76
  18.9689         83
  18.9874         91
  19.0060         83
  19.0246         88
  19.0432         74
  19.0617         82
  19.0803         76
  19.0989         71
  19.1175         83
  19.1360         83
  19.1546         81
  19.1732         88
  19.1918         98
  19.2103         89
  19.2289         91
  19.2475         68
  19.2661         91
  19.2846         82
  19.3032         78
  19.3218         80
  19.3404         98
  19.3589         82
  19.3775         88
  19.3961        104
  19.4147         71
  19.4332         91
  19.4518         94
  19.4704         81
  19.4890         74
  19.5075         72
  19.5261         82
  19.5447        102
  19.5633         92
  19.5818         89
  19.6004         92
  19.6190         75
  19.6376         88
  19.6561         91
  19.6747         81
  19.6933         85
  19.7119         80
  19.7305         82
  19.7490         91
  19.7676         75
  19.7862         73
  19.8048         87
  19.8233         77
  19.8419         82
  19.8605        101
  19.8791         83
  19.8976         90
  19.9162         78
  19.9348         87
  19.9534         68
  19.9719         77
  19.9905         87
  20.0091         80
  20.0277        100
  20.0462         75
  20.0648         91
  20.0834         88
  20.1020         98
  20.1205         91
  20.1391         88
  20.1577         84
  20.1763         94
  20.1948         95
  20.2134         98
  20.2320         82
  20.2506         83
  20.2691        104
  20.2877         95
  20.3063         85
  20.3249         88
  20.3434         79
  20.3620         87
  20.3806        106
  20.3992         88
  20.4177         81
  20.4363        101
  20.4549        106
  20.4735         87
