; (content of file Y:\Sam\Apurva-07-20-2022\puck1\ML_20220721_37_SJD_0_LaB6-4min.raw)
_FILEVERSION = 3
_SAMPLE = ML_20220721_37_SJD_0_LaB6-4min
_+SAMPLE = 
_SITE = USA
_USER = Administrator
_GONIOMETER_CODE = 20
; Goniometer : D8 theta/2theta, stage : Unknown
_ATTACHMENTS_CODE = 0
_GONIOMETER_RADIUS = 200.5
_FIXED_DIVSLIT = 0.6
_FIXED_SAMPLESLIT = 0
_SOLLER_SLITS = 2
_FIXED_DETSLIT = 9.55
_MONOCHROMATOR = 0
; Incident beam monochromator : None
_SOLLER_SLITS_2 = N
_THIN_FILM = N
_BETA_FILTER = Y
_FIXED_ANTISLIT = 5.89
_ANALYZER_CODE = 0
; Received beam analyzer : None
_DATEMEASURED = "25-Jul-2022 16:38:20"
_WL_UNIT = A
_WL1 = 1.5406
_WL2 = 1.54439
_WL3 = 1.39222
_WLRATIO = 0.5
_ANODE = Cu
_V4_INF_CREATOR = XRDWizard
_V4_INF_CREATOR_VERSION = V2.9.0.22
_V4_INF_WIZARD_VERSION = V2.9.0.22
_V4_INF_WIZARD_ADDINS = V2.9.0.22
_V4_INF_WIZARD_DOCTYPE = XRD
_V4_INF_OSUSER = McQueenLab
_V4_INF_USER = Administrator
_V4_INF_SITE = USA
_V4_INF_SAMPLEID = ML_20220721_37_SJD_0_LaB6-4min

; Data for range 1
_DRIVE = COUPLED
_STEPTIME = 11.28
_STEPSIZE = 0.0185756
_STEPMODE = C
_START = 5
_THETA = 2.5
_2THETA = 5
_KHI = 0
_PHI = 0
_X = 0
_Y = 0
_Z = 0
_DETECTOR = 5
; Detector type : Unknown
_DETECTORSLIT = unkn
_AUX1 = 0
_AUX2 = 0
_AUX3 = 0
_TIMESTARTED = 14
_TEMP_RATE = -1
_TEMP_DELAY = -1
_KV = 40
_MA = 40
_RANGE_WL = 1.5406
_3DPLANE = 0
_V4_ADDITIONALDETECTOR = 257
_V4_PSD2THETA = 3.3877
_V4_PSDCHANNEL1 = 0
_V4_PSDAPERTURE = 12.68
_V4_PSDTYPE = 5
_V4_PSDFIXED = 0
_V4_COUNTERS_MASK = 4096
_V4_DRIVES_MASK = 0
_V4_ENCODERS_MASK = 0
_2THETACOUNTS = 1
; 2THETA  PSD
   5.0000        276
   5.0186        279
   5.0372        257
   5.0557        267
   5.0743        290
   5.0929        259
   5.1115        250
   5.1300        262
   5.1486        261
   5.1672        247
   5.1858        253
   5.2043        244
   5.2229        241
   5.2415        240
   5.2601        231
   5.2786        263
   5.2972        243
   5.3158        220
   5.3344        257
   5.3529        260
   5.3715        261
   5.3901        226
   5.4087        237
   5.4272        249
   5.4458        224
   5.4644        242
   5.4830        234
   5.5015        226
   5.5201        226
   5.5387        250
   5.5573        237
   5.5758        237
   5.5944        216
   5.6130        224
   5.6316        200
   5.6501        204
   5.6687        220
   5.6873        238
   5.7059        217
   5.7244        207
   5.7430        206
   5.7616        229
   5.7802        206
   5.7988        203
   5.8173        198
   5.8359        200
   5.8545        212
   5.8731        197
   5.8916        226
   5.9102        181
   5.9288        226
   5.9474        208
   5.9659        210
   5.9845        210
   6.0031        199
   6.0217        201
   6.0402        228
   6.0588        204
   6.0774        195
   6.0960        218
   6.1145        187
   6.1331        192
   6.1517        201
   6.1703        188
   6.1888        190
   6.2074        163
   6.2260        182
   6.2446        178
   6.2631        178
   6.2817        214
   6.3003        192
   6.3189        193
   6.3374        192
   6.3560        231
   6.3746        191
   6.3932        173
   6.4117        191
   6.4303        182
   6.4489        203
   6.4675        195
   6.4860        169
   6.5046        185
   6.5232        176
   6.5418        171
   6.5604        188
   6.5789        195
   6.5975        214
   6.6161        168
   6.6347        172
   6.6532        171
   6.6718        172
   6.6904        180
   6.7090        188
   6.7275        178
   6.7461        181
   6.7647        174
   6.7833        181
   6.8018        154
   6.8204        163
   6.8390        168
   6.8576        167
   6.8761        160
   6.8947        172
   6.9133        171
   6.9319        160
   6.9504        174
   6.9690        159
   6.9876        166
   7.0062        171
   7.0247        170
   7.0433        176
   7.0619        167
   7.0805        160
   7.0990        160
   7.1176        183
   7.1362        175
   7.1548        146
   7.1733        166
   7.1919        178
   7.2105        167
   7.2291        184
   7.2476        159
   7.2662        163
   7.2848        156
   7.3034        175
   7.3220        138
   7.3405        165
   7.3591        139
   7.3777        171
   7.3963        165
   7.4148        198
   7.4334        158
   7.4520        161
   7.4706        169
   7.4891        188
   7.5077        174
   7.5263        157
   7.5449        177
   7.5634        180
   7.5820        183
   7.6006        157
   7.6192        149
   7.6377        184
   7.6563        169
   7.6749        181
   7.6935        168
   7.7120        168
   7.7306        196
   7.7492        171
   7.7678        163
   7.7863        164
   7.8049        176
   7.8235        151
   7.8421        177
   7.8606        175
   7.8792        213
   7.8978        173
   7.9164        200
   7.9349        197
   7.9535        176
   7.9721        201
   7.9907        190
   8.0092        176
   8.0278        185
   8.0464        225
   8.0650        181
   8.0835        201
   8.1021        182
   8.1207        161
   8.1393        192
   8.1579        200
   8.1764        192
   8.1950        189
   8.2136        205
   8.2322        194
   8.2507        193
   8.2693        188
   8.2879        165
   8.3065        201
   8.3250        183
   8.3436        201
   8.3622        183
   8.3808        215
   8.3993        204
   8.4179        202
   8.4365        164
   8.4551        198
   8.4736        206
   8.4922        175
   8.5108        201
   8.5294        194
   8.5479        196
   8.5665        195
   8.5851        212
   8.6037        217
   8.6222        201
   8.6408        200
   8.6594        190
   8.6780        207
   8.6965        193
   8.7151        197
   8.7337        204
   8.7523        196
   8.7708        199
   8.7894        203
   8.8080        207
   8.8266        200
   8.8451        221
   8.8637        209
   8.8823        210
   8.9009        244
   8.9195        213
   8.9380        236
   8.9566        207
   8.9752        202
   8.9938        198
   9.0123        189
   9.0309        203
   9.0495        252
   9.0681        247
   9.0866        221
   9.1052        204
   9.1238        206
   9.1424        215
   9.1609        229
   9.1795        208
   9.1981        231
   9.2167        232
   9.2352        231
   9.2538        217
   9.2724        236
   9.2910        214
   9.3095        196
   9.3281        242
   9.3467        195
   9.3653        244
   9.3838        194
   9.4024        232
   9.4210        230
   9.4396        235
   9.4581        207
   9.4767        272
   9.4953        197
   9.5139        211
   9.5324        264
   9.5510        203
   9.5696        224
   9.5882        222
   9.6067        237
   9.6253        193
   9.6439        229
   9.6625        229
   9.6811        205
   9.6996        210
   9.7182        197
   9.7368        193
   9.7554        218
   9.7739        228
   9.7925        234
   9.8111        247
   9.8297        232
   9.8482        235
   9.8668        241
   9.8854        240
   9.9040        233
   9.9225        247
   9.9411        217
   9.9597        261
   9.9783        263
   9.9968        205
  10.0154        246
  10.0340        246
  10.0526        226
  10.0711        249
  10.0897        238
  10.1083        236
  10.1269        220
  10.1454        258
  10.1640        264
  10.1826        211
  10.2012        266
  10.2197        244
  10.2383        231
  10.2569        272
  10.2755        231
  10.2940        254
  10.3126        253
  10.3312        262
  10.3498        241
  10.3683        258
  10.3869        260
  10.4055        287
  10.4241        269
  10.4427        246
  10.4612        246
  10.4798        250
  10.4984        231
  10.5170        238
  10.5355        254
  10.5541        242
  10.5727        243
  10.5913        257
  10.6098        250
  10.6284        243
  10.6470        255
  10.6656        243
  10.6841        257
  10.7027        237
  10.7213        250
  10.7399        236
  10.7584        249
  10.7770        247
  10.7956        259
  10.8142        254
  10.8327        250
  10.8513        237
  10.8699        234
  10.8885        235
  10.9070        259
  10.9256        234
  10.9442        231
  10.9628        187
  10.9813        258
  10.9999        234
  11.0185        250
  11.0371        260
  11.0556        216
  11.0742        250
  11.0928        269
  11.1114        252
  11.1299        247
  11.1485        254
  11.1671        219
  11.1857        231
  11.2043        251
  11.2228        258
  11.2414        236
  11.2600        233
  11.2786        249
  11.2971        246
  11.3157        256
  11.3343        244
  11.3529        247
  11.3714        248
  11.3900        246
  11.4086        230
  11.4272        279
  11.4457        215
  11.4643        248
  11.4829        222
  11.5015        249
  11.5200        222
  11.5386        264
  11.5572        238
  11.5758        254
  11.5943        238
  11.6129        225
  11.6315        235
  11.6501        243
  11.6686        220
  11.6872        242
  11.7058        237
  11.7244        245
  11.7429        222
  11.7615        256
  11.7801        244
  11.7987        234
  11.8172        238
  11.8358        235
  11.8544        228
  11.8730        247
  11.8915        237
  11.9101        211
  11.9287        233
  11.9473        206
  11.9659        238
  11.9844        271
  12.0030        211
  12.0216        236
  12.0402        233
  12.0587        233
  12.0773        237
  12.0959        213
  12.1145        215
  12.1330        215
  12.1516        219
  12.1702        193
  12.1888        222
  12.2073        229
  12.2259        233
  12.2445        207
  12.2631        225
  12.2816        233
  12.3002        242
  12.3188        243
  12.3374        194
  12.3559        236
  12.3745        249
  12.3931        217
  12.4117        225
  12.4302        219
  12.4488        229
  12.4674        210
  12.4860        228
  12.5045        245
  12.5231        209
  12.5417        251
  12.5603        214
  12.5788        202
  12.5974        198
  12.6160        232
  12.6346        186
  12.6531        207
  12.6717        227
  12.6903        189
  12.7089        210
  12.7274        230
  12.7460        212
  12.7646        196
  12.7832        202
  12.8018        212
  12.8203        209
  12.8389        231
  12.8575        196
  12.8761        235
  12.8946        219
  12.9132        191
  12.9318        227
  12.9504        213
  12.9689        207
  12.9875        223
  13.0061        205
  13.0247        199
  13.0432        218
  13.0618        170
  13.0804        198
  13.0990        225
  13.1175        193
  13.1361        188
  13.1547        205
  13.1733        203
  13.1918        196
  13.2104        208
  13.2290        193
  13.2476        206
  13.2661        192
  13.2847        197
  13.3033        201
  13.3219        201
  13.3404        221
  13.3590        189
  13.3776        195
  13.3962        188
  13.4147        201
  13.4333        213
  13.4519        199
  13.4705        214
  13.4890        202
  13.5076        198
  13.5262        188
  13.5448        161
  13.5634        196
  13.5819        210
  13.6005        205
  13.6191        204
  13.6377        207
  13.6562        191
  13.6748        171
  13.6934        226
  13.7120        196
  13.7305        217
  13.7491        198
  13.7677        190
  13.7863        187
  13.8048        201
  13.8234        212
  13.8420        195
  13.8606        183
  13.8791        196
  13.8977        204
  13.9163        183
  13.9349        174
  13.9534        168
  13.9720        173
  13.9906        175
  14.0092        194
  14.0277        164
  14.0463        185
  14.0649        177
  14.0835        225
  14.1020        176
  14.1206        188
  14.1392        203
  14.1578        205
  14.1763        186
  14.1949        200
  14.2135        172
  14.2321        177
  14.2506        180
  14.2692        160
  14.2878        190
  14.3064        187
  14.3250        159
  14.3435        187
  14.3621        177
  14.3807        171
  14.3993        178
  14.4178        163
  14.4364        173
  14.4550        192
  14.4736        180
  14.4921        183
  14.5107        176
  14.5293        192
  14.5479        190
  14.5664        170
  14.5850        177
  14.6036        153
  14.6222        138
  14.6407        191
  14.6593        175
  14.6779        154
  14.6965        169
  14.7150        181
  14.7336        190
  14.7522        175
  14.7708        160
  14.7893        169
  14.8079        152
  14.8265        184
  14.8451        174
  14.8636        163
  14.8822        174
  14.9008        181
  14.9194        168
  14.9379        172
  14.9565        171
  14.9751        173
  14.9937        165
  15.0122        161
  15.0308        160
  15.0494        141
  15.0680        165
  15.0866        201
  15.1051        175
  15.1237        151
  15.1423        175
  15.1609        159
  15.1794        165
  15.1980        187
  15.2166        198
  15.2352        160
  15.2537        162
  15.2723        160
  15.2909        171
  15.3095        209
  15.3280        134
  15.3466        149
  15.3652        153
  15.3838        171
  15.4023        178
  15.4209        159
  15.4395        163
  15.4581        181
  15.4766        184
  15.4952        154
  15.5138        162
  15.5324        161
  15.5509        141
  15.5695        152
  15.5881        162
  15.6067        176
  15.6252        182
  15.6438        185
  15.6624        171
  15.6810        164
  15.6995        161
  15.7181        166
  15.7367        172
  15.7553        162
  15.7738        152
  15.7924        152
  15.8110        165
  15.8296        164
  15.8482        137
  15.8667        184
  15.8853        175
  15.9039        172
  15.9225        155
  15.9410        165
  15.9596        204
  15.9782        168
  15.9968        173
  16.0153        143
  16.0339        170
  16.0525        176
  16.0711        159
  16.0896        156
  16.1082        156
  16.1268        162
  16.1454        156
  16.1639        165
  16.1825        156
  16.2011        174
  16.2197        165
  16.2382        152
  16.2568        152
  16.2754        164
  16.2940        202
  16.3125        156
  16.3311        168
  16.3497        152
  16.3683        157
  16.3868        157
  16.4054        176
  16.4240        169
  16.4426        181
  16.4611        166
  16.4797        163
  16.4983        160
  16.5169        136
  16.5354        152
  16.5540        170
  16.5726        184
  16.5912        163
  16.6097        139
  16.6283        167
  16.6469        156
  16.6655        165
  16.6841        173
  16.7026        160
  16.7212        173
  16.7398        188
  16.7584        168
  16.7769        144
  16.7955        162
  16.8141        179
  16.8327        160
  16.8512        167
  16.8698        170
  16.8884        172
  16.9070        166
  16.9255        142
  16.9441        141
  16.9627        155
  16.9813        144
  16.9998        180
  17.0184        161
  17.0370        178
  17.0556        178
  17.0741        157
  17.0927        143
  17.1113        151
  17.1299        147
  17.1484        172
  17.1670        173
  17.1856        145
  17.2042        159
  17.2227        159
  17.2413        149
  17.2599        173
  17.2785        157
  17.2970        170
  17.3156        171
  17.3342        188
  17.3528        179
  17.3713        152
  17.3899        171
  17.4085        149
  17.4271        158
  17.4457        179
  17.4642        136
  17.4828        168
  17.5014        164
  17.5200        179
  17.5385        176
  17.5571        145
  17.5757        174
  17.5943        165
  17.6128        175
  17.6314        175
  17.6500        145
  17.6686        170
  17.6871        137
  17.7057        149
  17.7243        160
  17.7429        172
  17.7614        149
  17.7800        185
  17.7986        153
  17.8172        168
  17.8357        159
  17.8543        151
  17.8729        200
  17.8915        175
  17.9100        138
  17.9286        167
  17.9472        174
  17.9658        169
  17.9843        159
  18.0029        179
  18.0215        152
  18.0401        146
  18.0586        157
  18.0772        159
  18.0958        162
  18.1144        156
  18.1329        187
  18.1515        178
  18.1701        155
  18.1887        140
  18.2073        182
  18.2258        173
  18.2444        182
  18.2630        159
  18.2816        164
  18.3001        183
  18.3187        164
  18.3373        155
  18.3559        157
  18.3744        171
  18.3930        181
  18.4116        181
  18.4302        172
  18.4487        167
  18.4673        173
  18.4859        173
  18.5045        181
  18.5230        156
  18.5416        167
  18.5602        161
  18.5788        171
  18.5973        161
  18.6159        166
  18.6345        167
  18.6531        160
  18.6716        159
  18.6902        171
  18.7088        173
  18.7274        150
  18.7459        173
  18.7645        157
  18.7831        154
  18.8017        181
  18.8202        178
  18.8388        167
  18.8574        167
  18.8760        152
  18.8945        178
  18.9131        172
  18.9317        170
  18.9503        180
  18.9689        148
  18.9874        159
  19.0060        177
  19.0246        176
  19.0432        161
  19.0617        162
  19.0803        169
  19.0989        184
  19.1175        169
  19.1360        156
  19.1546        167
  19.1732        170
  19.1918        161
  19.2103        172
  19.2289        143
  19.2475        179
  19.2661        191
  19.2846        175
  19.3032        179
  19.3218        184
  19.3404        169
  19.3589        154
  19.3775        173
  19.3961        188
  19.4147        195
  19.4332        167
  19.4518        150
  19.4704        180
  19.4890        197
  19.5075        158
  19.5261        187
  19.5447        184
  19.5633        168
  19.5818        159
  19.6004        182
  19.6190        204
  19.6376        171
  19.6561        176
  19.6747        174
  19.6933        187
  19.7119        154
  19.7305        159
  19.7490        172
  19.7676        188
  19.7862        175
  19.8048        165
  19.8233        182
  19.8419        181
  19.8605        204
  19.8791        186
  19.8976        189
  19.9162        183
  19.9348        172
  19.9534        199
  19.9719        185
  19.9905        172
  20.0091        171
  20.0277        192
  20.0462        180
  20.0648        184
  20.0834        180
  20.1020        185
  20.1205        175
  20.1391        179
  20.1577        191
  20.1763        182
  20.1948        174
  20.2134        172
  20.2320        193
  20.2506        200
  20.2691        200
  20.2877        204
  20.3063        181
  20.3249        178
  20.3434        179
  20.3620        180
  20.3806        210
  20.3992        179
  20.4177        170
  20.4363        174
  20.4549        196
  20.4735        168
