; (content of file Y:\Sam\Apurva-07-20-2022\puck2\ML_20220720_33_SJD_0_LaB6-1min.raw)
_FILEVERSION = 3
_SAMPLE = ML_20220720_33_SJD_0_LaB6-1mi
_+SAMPLE = 
_SITE = USA
_USER = Administrator
_GONIOMETER_CODE = 20
; Goniometer : D8 theta/2theta, stage : Unknown
_ATTACHMENTS_CODE = 0
_GONIOMETER_RADIUS = 200.5
_FIXED_DIVSLIT = 0.6
_FIXED_SAMPLESLIT = 0
_SOLLER_SLITS = 2
_FIXED_DETSLIT = 9.55
_MONOCHROMATOR = 0
; Incident beam monochromator : None
_SOLLER_SLITS_2 = N
_THIN_FILM = N
_BETA_FILTER = Y
_FIXED_ANTISLIT = 5.89
_ANALYZER_CODE = 0
; Received beam analyzer : None
_DATEMEASURED = "25-Jul-2022 18:48:00"
_WL_UNIT = A
_WL1 = 1.5406
_WL2 = 1.54439
_WL3 = 1.39222
_WLRATIO = 0.5
_ANODE = Cu
_V4_INF_CREATOR = XRDWizard
_V4_INF_CREATOR_VERSION = V2.9.0.22
_V4_INF_WIZARD_VERSION = V2.9.0.22
_V4_INF_WIZARD_ADDINS = V2.9.0.22
_V4_INF_WIZARD_DOCTYPE = XRD
_V4_INF_OSUSER = McQueenLab
_V4_INF_USER = Administrator
_V4_INF_SITE = USA
_V4_INF_SAMPLEID = ML_20220720_33_SJD_0_LaB6-1mi

; Data for range 1
_DRIVE = COUPLED
_STEPTIME = 4.23
_STEPSIZE = 0.0185756
_STEPMODE = C
_START = 5
_THETA = 2.5
_2THETA = 5
_KHI = 0
_PHI = 0
_X = 0
_Y = 0
_Z = 0
_DETECTOR = 5
; Detector type : Unknown
_DETECTORSLIT = unkn
_AUX1 = 0
_AUX2 = 0
_AUX3 = 0
_TIMESTARTED = 15
_TEMP_RATE = -1
_TEMP_DELAY = -1
_KV = 40
_MA = 40
_RANGE_WL = 1.5406
_3DPLANE = 0
_V4_ADDITIONALDETECTOR = 257
_V4_PSD2THETA = 3.3733
_V4_PSDCHANNEL1 = 0
_V4_PSDAPERTURE = 12.68
_V4_PSDTYPE = 5
_V4_PSDFIXED = 0
_V4_COUNTERS_MASK = 4096
_V4_DRIVES_MASK = 0
_V4_ENCODERS_MASK = 0
_2THETACOUNTS = 1
; 2THETA  PSD
   5.0000        115
   5.0186         99
   5.0372         85
   5.0557         80
   5.0743        106
   5.0929        103
   5.1115        100
   5.1300         79
   5.1486         91
   5.1672        103
   5.1858         94
   5.2043         97
   5.2229        100
   5.2415         82
   5.2601         75
   5.2786         76
   5.2972         82
   5.3158         98
   5.3344         61
   5.3529         63
   5.3715        100
   5.3901         74
   5.4087         87
   5.4272         83
   5.4458         75
   5.4644         77
   5.4830         91
   5.5015         83
   5.5201         65
   5.5387         92
   5.5573         78
   5.5758         99
   5.5944         91
   5.6130         89
   5.6316         90
   5.6501         76
   5.6687         85
   5.6873         80
   5.7059         69
   5.7244         91
   5.7430         75
   5.7616         95
   5.7802         77
   5.7988         66
   5.8173         60
   5.8359         76
   5.8545         84
   5.8731         73
   5.8916         88
   5.9102         78
   5.9288         74
   5.9474         90
   5.9659         73
   5.9845         68
   6.0031         60
   6.0217         57
   6.0402         90
   6.0588         70
   6.0774         83
   6.0960         73
   6.1145         60
   6.1331         55
   6.1517         70
   6.1703         64
   6.1888         57
   6.2074         57
   6.2260         65
   6.2446         76
   6.2631         61
   6.2817         69
   6.3003         69
   6.3189         63
   6.3374         67
   6.3560         62
   6.3746         79
   6.3932         66
   6.4117         59
   6.4303         57
   6.4489         64
   6.4675         78
   6.4860         53
   6.5046         71
   6.5232         52
   6.5418         67
   6.5604         64
   6.5789         51
   6.5975         70
   6.6161         65
   6.6347         61
   6.6532         61
   6.6718         72
   6.6904         76
   6.7090         60
   6.7275         83
   6.7461         64
   6.7647         66
   6.7833         58
   6.8018         68
   6.8204         66
   6.8390         60
   6.8576         57
   6.8761         67
   6.8947         61
   6.9133         78
   6.9319         57
   6.9504         64
   6.9690         62
   6.9876         54
   7.0062         55
   7.0247         60
   7.0433         61
   7.0619         53
   7.0805         65
   7.0990         62
   7.1176         49
   7.1362         62
   7.1548         44
   7.1733         62
   7.1919         57
   7.2105         65
   7.2291         65
   7.2476         63
   7.2662         64
   7.2848         47
   7.3034         61
   7.3220         66
   7.3405         61
   7.3591         65
   7.3777         73
   7.3963         54
   7.4148         57
   7.4334         60
   7.4520         62
   7.4706         61
   7.4891         71
   7.5077         53
   7.5263         62
   7.5449         63
   7.5634         65
   7.5820         64
   7.6006         64
   7.6192         66
   7.6377         79
   7.6563         61
   7.6749         60
   7.6935         60
   7.7120         58
   7.7306         55
   7.7492         62
   7.7678         61
   7.7863         57
   7.8049         70
   7.8235         78
   7.8421         65
   7.8606         72
   7.8792         70
   7.8978         61
   7.9164         62
   7.9349         72
   7.9535         65
   7.9721         74
   7.9907         75
   8.0092         74
   8.0278         68
   8.0464         64
   8.0650         60
   8.0835         62
   8.1021         67
   8.1207         62
   8.1393         60
   8.1579         65
   8.1764         67
   8.1950         74
   8.2136         66
   8.2322         73
   8.2507         80
   8.2693         71
   8.2879         65
   8.3065         66
   8.3250         79
   8.3436         74
   8.3622         70
   8.3808         63
   8.3993         64
   8.4179         75
   8.4365         69
   8.4551         70
   8.4736         73
   8.4922         73
   8.5108         68
   8.5294         63
   8.5479         72
   8.5665         64
   8.5851         81
   8.6037         64
   8.6222         67
   8.6408         69
   8.6594         69
   8.6780         83
   8.6965         85
   8.7151         79
   8.7337         88
   8.7523         90
   8.7708         74
   8.7894         85
   8.8080         78
   8.8266         81
   8.8451         78
   8.8637         80
   8.8823         77
   8.9009         78
   8.9195         69
   8.9380         88
   8.9566         72
   8.9752         71
   8.9938         77
   9.0123         67
   9.0309         82
   9.0495         89
   9.0681         77
   9.0866         79
   9.1052         77
   9.1238         95
   9.1424         73
   9.1609         69
   9.1795         82
   9.1981         82
   9.2167         71
   9.2352         82
   9.2538         87
   9.2724         63
   9.2910         73
   9.3095         86
   9.3281         90
   9.3467         89
   9.3653         83
   9.3838         87
   9.4024         78
   9.4210         73
   9.4396         95
   9.4581         85
   9.4767         61
   9.4953         80
   9.5139         80
   9.5324         77
   9.5510         84
   9.5696         72
   9.5882         73
   9.6067         84
   9.6253         74
   9.6439         75
   9.6625         74
   9.6811         89
   9.6996         90
   9.7182         71
   9.7368         84
   9.7554         83
   9.7739         80
   9.7925         70
   9.8111         89
   9.8297         97
   9.8482        103
   9.8668         75
   9.8854         81
   9.9040         80
   9.9225         93
   9.9411        105
   9.9597         81
   9.9783         98
   9.9968         75
  10.0154        101
  10.0340         98
  10.0526         78
  10.0711         91
  10.0897         77
  10.1083         82
  10.1269         81
  10.1454         94
  10.1640         88
  10.1826         92
  10.2012         83
  10.2197        105
  10.2383        100
  10.2569         92
  10.2755         75
  10.2940        104
  10.3126         98
  10.3312         84
  10.3498         82
  10.3683         70
  10.3869         89
  10.4055         95
  10.4241         85
  10.4427         90
  10.4612         98
  10.4798         84
  10.4984         90
  10.5170        113
  10.5355         76
  10.5541        103
  10.5727         85
  10.5913         77
  10.6098         86
  10.6284         94
  10.6470         88
  10.6656         93
  10.6841         95
  10.7027         82
  10.7213         84
  10.7399         77
  10.7584         96
  10.7770        101
  10.7956         85
  10.8142         91
  10.8327         85
  10.8513         73
  10.8699         95
  10.8885         86
  10.9070         91
  10.9256         86
  10.9442         85
  10.9628         86
  10.9813         89
  10.9999         75
  11.0185         80
  11.0371         86
  11.0556         80
  11.0742         80
  11.0928         92
  11.1114         87
  11.1299         90
  11.1485        103
  11.1671         83
  11.1857         81
  11.2043         80
  11.2228         98
  11.2414         87
  11.2600         94
  11.2786        103
  11.2971         86
  11.3157         76
  11.3343         84
  11.3529         88
  11.3714         91
  11.3900        105
  11.4086         89
  11.4272         74
  11.4457         89
  11.4643         90
  11.4829         72
  11.5015         79
  11.5200         99
  11.5386         81
  11.5572        100
  11.5758         76
  11.5943         83
  11.6129         98
  11.6315         95
  11.6501         93
  11.6686         83
  11.6872         78
  11.7058         70
  11.7244         83
  11.7429         87
  11.7615         79
  11.7801         81
  11.7987        111
  11.8172         88
  11.8358         76
  11.8544         95
  11.8730         86
  11.8915         71
  11.9101         75
  11.9287        104
  11.9473         77
  11.9659         77
  11.9844         73
  12.0030         82
  12.0216         86
  12.0402         92
  12.0587         80
  12.0773         68
  12.0959         73
  12.1145         71
  12.1330         89
  12.1516         78
  12.1702         72
  12.1888         73
  12.2073         90
  12.2259         82
  12.2445         90
  12.2631         94
  12.2816         84
  12.3002         86
  12.3188         75
  12.3374         85
  12.3559         86
  12.3745         83
  12.3931         75
  12.4117         82
  12.4302        100
  12.4488         83
  12.4674         84
  12.4860         74
  12.5045         75
  12.5231         72
  12.5417         79
  12.5603         73
  12.5788         68
  12.5974         87
  12.6160         69
  12.6346         69
  12.6531         67
  12.6717         88
  12.6903         62
  12.7089         59
  12.7274         67
  12.7460         75
  12.7646         80
  12.7832         97
  12.8018         75
  12.8203         62
  12.8389         87
  12.8575         88
  12.8761         81
  12.8946         84
  12.9132         81
  12.9318         79
  12.9504         83
  12.9689         75
  12.9875         84
  13.0061         65
  13.0247         77
  13.0432         78
  13.0618         76
  13.0804         83
  13.0990         76
  13.1175         90
  13.1361         77
  13.1547         68
  13.1733         71
  13.1918         86
  13.2104         82
  13.2290         81
  13.2476         74
  13.2661         77
  13.2847         62
  13.3033         71
  13.3219         78
  13.3404         72
  13.3590         76
  13.3776         55
  13.3962         72
  13.4147         72
  13.4333         61
  13.4519         74
  13.4705         75
  13.4890         60
  13.5076         81
  13.5262         79
  13.5448         80
  13.5634         77
  13.5819         79
  13.6005         66
  13.6191         69
  13.6377         70
  13.6562         66
  13.6748         70
  13.6934         60
  13.7120         59
  13.7305         78
  13.7491         68
  13.7677         66
  13.7863         56
  13.8048         68
  13.8234         74
  13.8420         63
  13.8606         77
  13.8791         63
  13.8977         63
  13.9163         72
  13.9349         65
  13.9534         70
  13.9720         53
  13.9906         77
  14.0092         63
  14.0277         76
  14.0463         69
  14.0649         69
  14.0835         72
  14.1020         71
  14.1206         65
  14.1392         87
  14.1578         61
  14.1763         72
  14.1949         66
  14.2135         55
  14.2321         54
  14.2506         60
  14.2692         61
  14.2878         60
  14.3064         58
  14.3250         72
  14.3435         55
  14.3621         44
  14.3807         52
  14.3993         60
  14.4178         56
  14.4364         66
  14.4550         60
  14.4736         56
  14.4921         54
  14.5107         71
  14.5293         67
  14.5479         53
  14.5664         51
  14.5850         72
  14.6036         59
  14.6222         61
  14.6407         71
  14.6593         69
  14.6779         58
  14.6965         49
  14.7150         58
  14.7336         69
  14.7522         72
  14.7708         62
  14.7893         70
  14.8079         55
  14.8265         68
  14.8451         56
  14.8636         59
  14.8822         69
  14.9008         61
  14.9194         64
  14.9379         58
  14.9565         50
  14.9751         53
  14.9937         62
  15.0122         62
  15.0308         52
  15.0494         72
  15.0680         54
  15.0866         69
  15.1051         57
  15.1237         66
  15.1423         60
  15.1609         60
  15.1794         45
  15.1980         50
  15.2166         61
  15.2352         62
  15.2537         56
  15.2723         65
  15.2909         50
  15.3095         60
  15.3280         67
  15.3466         52
  15.3652         68
  15.3838         63
  15.4023         57
  15.4209         53
  15.4395         55
  15.4581         59
  15.4766         73
  15.4952         51
  15.5138         74
  15.5324         58
  15.5509         68
  15.5695         52
  15.5881         50
  15.6067         57
  15.6252         58
  15.6438         54
  15.6624         64
  15.6810         69
  15.6995         50
  15.7181         64
  15.7367         77
  15.7553         77
  15.7738         65
  15.7924         76
  15.8110         66
  15.8296         67
  15.8482         52
  15.8667         60
  15.8853         48
  15.9039         52
  15.9225         54
  15.9410         52
  15.9596         55
  15.9782         58
  15.9968         55
  16.0153         71
  16.0339         59
  16.0525         58
  16.0711         62
  16.0896         69
  16.1082         50
  16.1268         59
  16.1454         63
  16.1639         60
  16.1825         57
  16.2011         71
  16.2197         55
  16.2382         57
  16.2568         76
  16.2754         56
  16.2940         58
  16.3125         60
  16.3311         60
  16.3497         49
  16.3683         60
  16.3868         51
  16.4054         49
  16.4240         58
  16.4426         60
  16.4611         66
  16.4797         53
  16.4983         59
  16.5169         60
  16.5354         57
  16.5540         55
  16.5726         62
  16.5912         65
  16.6097         55
  16.6283         54
  16.6469         51
  16.6655         62
  16.6841         58
  16.7026         69
  16.7212         57
  16.7398         62
  16.7584         65
  16.7769         58
  16.7955         60
  16.8141         63
  16.8327         54
  16.8512         57
  16.8698         68
  16.8884         66
  16.9070         55
  16.9255         56
  16.9441         66
  16.9627         57
  16.9813         58
  16.9998         90
  17.0184         70
  17.0370         71
  17.0556         69
  17.0741         57
  17.0927         60
  17.1113         58
  17.1299         48
  17.1484         69
  17.1670         42
  17.1856         63
  17.2042         54
  17.2227         62
  17.2413         60
  17.2599         64
  17.2785         51
  17.2970         70
  17.3156         69
  17.3342         62
  17.3528         41
  17.3713         63
  17.3899         53
  17.4085         52
  17.4271         75
  17.4457         74
  17.4642         72
  17.4828         52
  17.5014         57
  17.5200         71
  17.5385         50
  17.5571         52
  17.5757         69
  17.5943         53
  17.6128         65
  17.6314         54
  17.6500         49
  17.6686         67
  17.6871         60
  17.7057         71
  17.7243         62
  17.7429         60
  17.7614         59
  17.7800         54
  17.7986         51
  17.8172         65
  17.8357         50
  17.8543         65
  17.8729         65
  17.8915         64
  17.9100         48
  17.9286         62
  17.9472         52
  17.9658         52
  17.9843         54
  18.0029         69
  18.0215         53
  18.0401         67
  18.0586         53
  18.0772         52
  18.0958         64
  18.1144         58
  18.1329         59
  18.1515         70
  18.1701         61
  18.1887         61
  18.2073         49
  18.2258         51
  18.2444         54
  18.2630         55
  18.2816         54
  18.3001         69
  18.3187         65
  18.3373         63
  18.3559         66
  18.3744         62
  18.3930         71
  18.4116         65
  18.4302         52
  18.4487         55
  18.4673         64
  18.4859         66
  18.5045         65
  18.5230         71
  18.5416         71
  18.5602         65
  18.5788         61
  18.5973         72
  18.6159         54
  18.6345         55
  18.6531         65
  18.6716         65
  18.6902         55
  18.7088         62
  18.7274         51
  18.7459         63
  18.7645         54
  18.7831         55
  18.8017         52
  18.8202         68
  18.8388         65
  18.8574         68
  18.8760         56
  18.8945         74
  18.9131         51
  18.9317         69
  18.9503         53
  18.9689         56
  18.9874         71
  19.0060         61
  19.0246         52
  19.0432         62
  19.0617         55
  19.0803         60
  19.0989         73
  19.1175         64
  19.1360         65
  19.1546         71
  19.1732         62
  19.1918         78
  19.2103         66
  19.2289         58
  19.2475         57
  19.2661         52
  19.2846         77
  19.3032         62
  19.3218         59
  19.3404         74
  19.3589         71
  19.3775         69
  19.3961         59
  19.4147         55
  19.4332         60
  19.4518         61
  19.4704         57
  19.4890         61
  19.5075         73
  19.5261         59
  19.5447         57
  19.5633         56
  19.5818         65
  19.6004         74
  19.6190         81
  19.6376         74
  19.6561         74
  19.6747         70
  19.6933         66
  19.7119         51
  19.7305         68
  19.7490         62
  19.7676         69
  19.7862         62
  19.8048         76
  19.8233         64
  19.8419         65
  19.8605         48
  19.8791         57
  19.8976         65
  19.9162         65
  19.9348         68
  19.9534         66
  19.9719         76
  19.9905         76
  20.0091         62
  20.0277         73
  20.0462         59
  20.0648         68
  20.0834         51
  20.1020         70
  20.1205         51
  20.1391         70
  20.1577         70
  20.1763         69
  20.1948         70
  20.2134         63
  20.2320         66
  20.2506         61
  20.2691         56
  20.2877         84
  20.3063         48
  20.3249         70
  20.3434         54
  20.3620         67
  20.3806         78
  20.3992         68
  20.4177         75
  20.4363         69
  20.4549         71
  20.4735         72
