; (content of file Y:\Sam\Apurva-07-20-2022\puck4\ML_20220718_36_SJD_0_LaB6-2min.raw)
_FILEVERSION = 3
_SAMPLE = ML_20220718_36_SJD_0_LaB6-2min
_+SAMPLE = 
_SITE = USA
_USER = Administrator
_GONIOMETER_CODE = 20
; Goniometer : D8 theta/2theta, stage : Unknown
_ATTACHMENTS_CODE = 0
_GONIOMETER_RADIUS = 200.5
_FIXED_DIVSLIT = 0.6
_FIXED_SAMPLESLIT = 0
_SOLLER_SLITS = 2
_FIXED_DETSLIT = 9.55
_MONOCHROMATOR = 0
; Incident beam monochromator : None
_SOLLER_SLITS_2 = N
_THIN_FILM = N
_BETA_FILTER = Y
_FIXED_ANTISLIT = 5.89
_ANALYZER_CODE = 0
; Received beam analyzer : None
_DATEMEASURED = "26-Jul-2022 08:59:16"
_WL_UNIT = A
_WL1 = 1.5406
_WL2 = 1.54439
_WL3 = 1.39222
_WLRATIO = 0.5
_ANODE = Cu
_V4_INF_CREATOR = XRDWizard
_V4_INF_CREATOR_VERSION = V2.9.0.22
_V4_INF_WIZARD_VERSION = V2.9.0.22
_V4_INF_WIZARD_ADDINS = V2.9.0.22
_V4_INF_WIZARD_DOCTYPE = XRD
_V4_INF_OSUSER = McQueenLab
_V4_INF_USER = Administrator
_V4_INF_SITE = USA
_V4_INF_SAMPLEID = ML_20220718_36_SJD_0_LaB6-2min

; Data for range 1
_DRIVE = COUPLED
_STEPTIME = 5.64
_STEPSIZE = 0.0185756
_STEPMODE = C
_START = 5
_THETA = 2.5
_2THETA = 5
_KHI = 0
_PHI = 0
_X = 0
_Y = 0
_Z = 0
_DETECTOR = 5
; Detector type : Unknown
_DETECTORSLIT = unkn
_AUX1 = 0
_AUX2 = 0
_AUX3 = 0
_TIMESTARTED = 15
_TEMP_RATE = -1
_TEMP_DELAY = -1
_KV = 40
_MA = 40
_RANGE_WL = 1.5406
_3DPLANE = 0
_V4_ADDITIONALDETECTOR = 257
_V4_PSD2THETA = 3.4185
_V4_PSDCHANNEL1 = 0
_V4_PSDAPERTURE = 12.68
_V4_PSDTYPE = 5
_V4_PSDFIXED = 0
_V4_COUNTERS_MASK = 4096
_V4_DRIVES_MASK = 0
_V4_ENCODERS_MASK = 0
_2THETACOUNTS = 1
; 2THETA  PSD
   5.0000        120
   5.0186        121
   5.0372        146
   5.0557        127
   5.0743        142
   5.0929        122
   5.1115        123
   5.1300        107
   5.1486        121
   5.1672        112
   5.1858        130
   5.2043        110
   5.2229        127
   5.2415        115
   5.2601        111
   5.2786        125
   5.2972        116
   5.3158        116
   5.3344        108
   5.3529        115
   5.3715        103
   5.3901        116
   5.4087        107
   5.4272        103
   5.4458        111
   5.4644        124
   5.4830        103
   5.5015        100
   5.5201        110
   5.5387        113
   5.5573        119
   5.5758        104
   5.5944         93
   5.6130        107
   5.6316        113
   5.6501         95
   5.6687        120
   5.6873        106
   5.7059        107
   5.7244        107
   5.7430        107
   5.7616        114
   5.7802        101
   5.7988        112
   5.8173         97
   5.8359         97
   5.8545        106
   5.8731        133
   5.8916        103
   5.9102        101
   5.9288        103
   5.9474         85
   5.9659         94
   5.9845         99
   6.0031        111
   6.0217         94
   6.0402        108
   6.0588        103
   6.0774         98
   6.0960         90
   6.1145        118
   6.1331         97
   6.1517         88
   6.1703        109
   6.1888         82
   6.2074         79
   6.2260         94
   6.2446         96
   6.2631        105
   6.2817         82
   6.3003         90
   6.3189         87
   6.3374         76
   6.3560         70
   6.3746         96
   6.3932         99
   6.4117        101
   6.4303         84
   6.4489         74
   6.4675         98
   6.4860         94
   6.5046         89
   6.5232         81
   6.5418        101
   6.5604         83
   6.5789         68
   6.5975         87
   6.6161         78
   6.6347        100
   6.6532         90
   6.6718         87
   6.6904         77
   6.7090         77
   6.7275         62
   6.7461         75
   6.7647         77
   6.7833         70
   6.8018         78
   6.8204         75
   6.8390         81
   6.8576         73
   6.8761         96
   6.8947         82
   6.9133         83
   6.9319         84
   6.9504         73
   6.9690         85
   6.9876         90
   7.0062         83
   7.0247         59
   7.0433         85
   7.0619         76
   7.0805         82
   7.0990         81
   7.1176         76
   7.1362         79
   7.1548         52
   7.1733         73
   7.1919         70
   7.2105         70
   7.2291         99
   7.2476         74
   7.2662         80
   7.2848         81
   7.3034         74
   7.3220         91
   7.3405         74
   7.3591         67
   7.3777         80
   7.3963         84
   7.4148         79
   7.4334         94
   7.4520         77
   7.4706         75
   7.4891         69
   7.5077         82
   7.5263         69
   7.5449         82
   7.5634         83
   7.5820         98
   7.6006         93
   7.6192         94
   7.6377        109
   7.6563         91
   7.6749         77
   7.6935         77
   7.7120         82
   7.7306         88
   7.7492         82
   7.7678         76
   7.7863         92
   7.8049         94
   7.8235         85
   7.8421         97
   7.8606         77
   7.8792         78
   7.8978         79
   7.9164         76
   7.9349         91
   7.9535         92
   7.9721         74
   7.9907         94
   8.0092         78
   8.0278         77
   8.0464         91
   8.0650         90
   8.0835         85
   8.1021        103
   8.1207         95
   8.1393         98
   8.1579         85
   8.1764         90
   8.1950         98
   8.2136         88
   8.2322         96
   8.2507         95
   8.2693         82
   8.2879         88
   8.3065         97
   8.3250         78
   8.3436         97
   8.3622         90
   8.3808         93
   8.3993         93
   8.4179         99
   8.4365         86
   8.4551         79
   8.4736        117
   8.4922        100
   8.5108        112
   8.5294        116
   8.5479        114
   8.5665        103
   8.5851        107
   8.6037         98
   8.6222         79
   8.6408         97
   8.6594         93
   8.6780         83
   8.6965        118
   8.7151        120
   8.7337         93
   8.7523         99
   8.7708        102
   8.7894        113
   8.8080        120
   8.8266         96
   8.8451        101
   8.8637         92
   8.8823        104
   8.9009         85
   8.9195        117
   8.9380        102
   8.9566        104
   8.9752        103
   8.9938        112
   9.0123         95
   9.0309        100
   9.0495         86
   9.0681         94
   9.0866         92
   9.1052        108
   9.1238        113
   9.1424         98
   9.1609        109
   9.1795        104
   9.1981        104
   9.2167        101
   9.2352        132
   9.2538        110
   9.2724        101
   9.2910         99
   9.3095         98
   9.3281        112
   9.3467        101
   9.3653        115
   9.3838        117
   9.4024        110
   9.4210        128
   9.4396        107
   9.4581        109
   9.4767        132
   9.4953         91
   9.5139        106
   9.5324        120
   9.5510        100
   9.5696        112
   9.5882        112
   9.6067         91
   9.6253         93
   9.6439        110
   9.6625        118
   9.6811        103
   9.6996        117
   9.7182        129
   9.7368        108
   9.7554        105
   9.7739        101
   9.7925        125
   9.8111        103
   9.8297        113
   9.8482        107
   9.8668        134
   9.8854        130
   9.9040        119
   9.9225        115
   9.9411        112
   9.9597        138
   9.9783        133
   9.9968        121
  10.0154        129
  10.0340        104
  10.0526        110
  10.0711        127
  10.0897        130
  10.1083        115
  10.1269        121
  10.1454        110
  10.1640        127
  10.1826        118
  10.2012        110
  10.2197        101
  10.2383        111
  10.2569        111
  10.2755         99
  10.2940        112
  10.3126        117
  10.3312        116
  10.3498        115
  10.3683        130
  10.3869        119
  10.4055        124
  10.4241        120
  10.4427        129
  10.4612        113
  10.4798        134
  10.4984        135
  10.5170        108
  10.5355        141
  10.5541        121
  10.5727        114
  10.5913        116
  10.6098        128
  10.6284        112
  10.6470        124
  10.6656        122
  10.6841        115
  10.7027        114
  10.7213        104
  10.7399        113
  10.7584        115
  10.7770        113
  10.7956        122
  10.8142        110
  10.8327         99
  10.8513        127
  10.8699        118
  10.8885        126
  10.9070        115
  10.9256        108
  10.9442        134
  10.9628        106
  10.9813        109
  10.9999        106
  11.0185        116
  11.0371        119
  11.0556        118
  11.0742        122
  11.0928        131
  11.1114        116
  11.1299        109
  11.1485        113
  11.1671        102
  11.1857        110
  11.2043        133
  11.2228        112
  11.2414        115
  11.2600        122
  11.2786        130
  11.2971        108
  11.3157        121
  11.3343        103
  11.3529        130
  11.3714        128
  11.3900        107
  11.4086        116
  11.4272        126
  11.4457        104
  11.4643        107
  11.4829        115
  11.5015        126
  11.5200        120
  11.5386        134
  11.5572        103
  11.5758        103
  11.5943        102
  11.6129        115
  11.6315        109
  11.6501         98
  11.6686        100
  11.6872        105
  11.7058        106
  11.7244        102
  11.7429        123
  11.7615        104
  11.7801        113
  11.7987        119
  11.8172        106
  11.8358        115
  11.8544        108
  11.8730        106
  11.8915        126
  11.9101         99
  11.9287        122
  11.9473        120
  11.9659        116
  11.9844        110
  12.0030        113
  12.0216        116
  12.0402        116
  12.0587        119
  12.0773         92
  12.0959        115
  12.1145        112
  12.1330        109
  12.1516        109
  12.1702         93
  12.1888        109
  12.2073        111
  12.2259        118
  12.2445         96
  12.2631         97
  12.2816        105
  12.3002        110
  12.3188        111
  12.3374         96
  12.3559         99
  12.3745        100
  12.3931        123
  12.4117        114
  12.4302        100
  12.4488        109
  12.4674        103
  12.4860        102
  12.5045         98
  12.5231         90
  12.5417        105
  12.5603        125
  12.5788        101
  12.5974        108
  12.6160        105
  12.6346        108
  12.6531        105
  12.6717         99
  12.6903        106
  12.7089        101
  12.7274        108
  12.7460        111
  12.7646        115
  12.7832        111
  12.8018         94
  12.8203        105
  12.8389         99
  12.8575        107
  12.8761        115
  12.8946         90
  12.9132        100
  12.9318         98
  12.9504         96
  12.9689        101
  12.9875        100
  13.0061        106
  13.0247        113
  13.0432        102
  13.0618        103
  13.0804         88
  13.0990        120
  13.1175         90
  13.1361         89
  13.1547         91
  13.1733         89
  13.1918         84
  13.2104         84
  13.2290         82
  13.2476         89
  13.2661         99
  13.2847         84
  13.3033         74
  13.3219         92
  13.3404         92
  13.3590         79
  13.3776         83
  13.3962         93
  13.4147        104
  13.4333         92
  13.4519         94
  13.4705         98
  13.4890         95
  13.5076         97
  13.5262         92
  13.5448         85
  13.5634         82
  13.5819         90
  13.6005         99
  13.6191         99
  13.6377         92
  13.6562         88
  13.6748         82
  13.6934         83
  13.7120         86
  13.7305         89
  13.7491         91
  13.7677         85
  13.7863         77
  13.8048         98
  13.8234         74
  13.8420         86
  13.8606         98
  13.8791         81
  13.8977        104
  13.9163         85
  13.9349         96
  13.9534        109
  13.9720        107
  13.9906         77
  14.0092        108
  14.0277         74
  14.0463         93
  14.0649         75
  14.0835         91
  14.1020         68
  14.1206         85
  14.1392         92
  14.1578         83
  14.1763         88
  14.1949         94
  14.2135         75
  14.2321         88
  14.2506        106
  14.2692         97
  14.2878         87
  14.3064         86
  14.3250         92
  14.3435         63
  14.3621         84
  14.3807         83
  14.3993        108
  14.4178         87
  14.4364         88
  14.4550         94
  14.4736         92
  14.4921         82
  14.5107         79
  14.5293         90
  14.5479         92
  14.5664         86
  14.5850         69
  14.6036         75
  14.6222         97
  14.6407        104
  14.6593         98
  14.6779         80
  14.6965         85
  14.7150         68
  14.7336         68
  14.7522         86
  14.7708         82
  14.7893         96
  14.8079         67
  14.8265         83
  14.8451         81
  14.8636         81
  14.8822         88
  14.9008         84
  14.9194         83
  14.9379         78
  14.9565         86
  14.9751         83
  14.9937         94
  15.0122         77
  15.0308         86
  15.0494         80
  15.0680         87
  15.0866         77
  15.1051         85
  15.1237         79
  15.1423         97
  15.1609         67
  15.1794         68
  15.1980         76
  15.2166         73
  15.2352         84
  15.2537         83
  15.2723         81
  15.2909         77
  15.3095         97
  15.3280         81
  15.3466         78
  15.3652         75
  15.3838         82
  15.4023         98
  15.4209         96
  15.4395         87
  15.4581         72
  15.4766         82
  15.4952         82
  15.5138         87
  15.5324         70
  15.5509         84
  15.5695         72
  15.5881         97
  15.6067         78
  15.6252         78
  15.6438         70
  15.6624         81
  15.6810         92
  15.6995         81
  15.7181         90
  15.7367         72
  15.7553         60
  15.7738         91
  15.7924         80
  15.8110         74
  15.8296        100
  15.8482         84
  15.8667         89
  15.8853         84
  15.9039         91
  15.9225         87
  15.9410         75
  15.9596         78
  15.9782         79
  15.9968         78
  16.0153         76
  16.0339         83
  16.0525         85
  16.0711         76
  16.0896         70
  16.1082         86
  16.1268         75
  16.1454         82
  16.1639         78
  16.1825         88
  16.2011         80
  16.2197         84
  16.2382         71
  16.2568         81
  16.2754         68
  16.2940         71
  16.3125         80
  16.3311         82
  16.3497         82
  16.3683         64
  16.3868         96
  16.4054         75
  16.4240         72
  16.4426         81
  16.4611         92
  16.4797         76
  16.4983         73
  16.5169         77
  16.5354         77
  16.5540         92
  16.5726         90
  16.5912        100
  16.6097         80
  16.6283         78
  16.6469         73
  16.6655         65
  16.6841         73
  16.7026         77
  16.7212         73
  16.7398         78
  16.7584         78
  16.7769         87
  16.7955         89
  16.8141        100
  16.8327         72
  16.8512         78
  16.8698         90
  16.8884         93
  16.9070         81
  16.9255         77
  16.9441         79
  16.9627         75
  16.9813         77
  16.9998         74
  17.0184         85
  17.0370         76
  17.0556         74
  17.0741         83
  17.0927         81
  17.1113         75
  17.1299         77
  17.1484         68
  17.1670         74
  17.1856         71
  17.2042         83
  17.2227         75
  17.2413         73
  17.2599         76
  17.2785         88
  17.2970         69
  17.3156         74
  17.3342         71
  17.3528         74
  17.3713         93
  17.3899         79
  17.4085         95
  17.4271         79
  17.4457         72
  17.4642         58
  17.4828         66
  17.5014         88
  17.5200         73
  17.5385         77
  17.5571         78
  17.5757         99
  17.5943         84
  17.6128         76
  17.6314         76
  17.6500         68
  17.6686         79
  17.6871         98
  17.7057         85
  17.7243         79
  17.7429         67
  17.7614         78
  17.7800         74
  17.7986         83
  17.8172         73
  17.8357         93
  17.8543         89
  17.8729         83
  17.8915         80
  17.9100         89
  17.9286         81
  17.9472         82
  17.9658         79
  17.9843         78
  18.0029         67
  18.0215         72
  18.0401         75
  18.0586         83
  18.0772         74
  18.0958         69
  18.1144         85
  18.1329         90
  18.1515         79
  18.1701         68
  18.1887         79
  18.2073         83
  18.2258         98
  18.2444         71
  18.2630         79
  18.2816         69
  18.3001         81
  18.3187         81
  18.3373         73
  18.3559         80
  18.3744         86
  18.3930         94
  18.4116         75
  18.4302         91
  18.4487         77
  18.4673         96
  18.4859         63
  18.5045         66
  18.5230         76
  18.5416         94
  18.5602         81
  18.5788         88
  18.5973         92
  18.6159         67
  18.6345         94
  18.6531         89
  18.6716         94
  18.6902         67
  18.7088         97
  18.7274         67
  18.7459         75
  18.7645         80
  18.7831         79
  18.8017         85
  18.8202         77
  18.8388         74
  18.8574         83
  18.8760         81
  18.8945         82
  18.9131         78
  18.9317         77
  18.9503         74
  18.9689         80
  18.9874         75
  19.0060         95
  19.0246         62
  19.0432         86
  19.0617         75
  19.0803         75
  19.0989        102
  19.1175         90
  19.1360         82
  19.1546         80
  19.1732         83
  19.1918         84
  19.2103         87
  19.2289         84
  19.2475         79
  19.2661         67
  19.2846         74
  19.3032         83
  19.3218         93
  19.3404         90
  19.3589         93
  19.3775         92
  19.3961         91
  19.4147         74
  19.4332         82
  19.4518         87
  19.4704         76
  19.4890         99
  19.5075         75
  19.5261         72
  19.5447         66
  19.5633         83
  19.5818         83
  19.6004         75
  19.6190         68
  19.6376         71
  19.6561         75
  19.6747         85
  19.6933         82
  19.7119         78
  19.7305         89
  19.7490         86
  19.7676        102
  19.7862         71
  19.8048         73
  19.8233         85
  19.8419         99
  19.8605         81
  19.8791         70
  19.8976         97
  19.9162         98
  19.9348         97
  19.9534         80
  19.9719         87
  19.9905         93
  20.0091         82
  20.0277         96
  20.0462         85
  20.0648         88
  20.0834         98
  20.1020         86
  20.1205         81
  20.1391         76
  20.1577         86
  20.1763         84
  20.1948         98
  20.2134        100
  20.2320         94
  20.2506         67
  20.2691         98
  20.2877         83
  20.3063         94
  20.3249         83
  20.3434         91
  20.3620         99
  20.3806         93
  20.3992         98
  20.4177         99
  20.4363         98
  20.4549         89
  20.4735         86
