; (content of file Y:\Sam\Apurva-07-20-2022\puck4\ML_20220718_43_SJD_4_LaB6-2min.raw)
_FILEVERSION = 3
_SAMPLE = ML_20220718_43_SJD_4_LaB6-2min
_+SAMPLE = 
_SITE = USA
_USER = Administrator
_GONIOMETER_CODE = 20
; Goniometer : D8 theta/2theta, stage : Unknown
_ATTACHMENTS_CODE = 0
_GONIOMETER_RADIUS = 200.5
_FIXED_DIVSLIT = 0.6
_FIXED_SAMPLESLIT = 0
_SOLLER_SLITS = 2
_FIXED_DETSLIT = 9.55
_MONOCHROMATOR = 0
; Incident beam monochromator : None
_SOLLER_SLITS_2 = N
_THIN_FILM = N
_BETA_FILTER = Y
_FIXED_ANTISLIT = 5.89
_ANALYZER_CODE = 0
; Received beam analyzer : None
_DATEMEASURED = "26-Jul-2022 12:10:54"
_WL_UNIT = A
_WL1 = 1.5406
_WL2 = 1.54439
_WL3 = 1.39222
_WLRATIO = 0.5
_ANODE = Cu
_V4_INF_CREATOR = XRDWizard
_V4_INF_CREATOR_VERSION = V2.9.0.22
_V4_INF_WIZARD_VERSION = V2.9.0.22
_V4_INF_WIZARD_ADDINS = V2.9.0.22
_V4_INF_WIZARD_DOCTYPE = XRD
_V4_INF_OSUSER = McQueenLab
_V4_INF_USER = Administrator
_V4_INF_SITE = USA
_V4_INF_SAMPLEID = ML_20220718_43_SJD_4_LaB6-2min

; Data for range 1
_DRIVE = COUPLED
_STEPTIME = 5.64
_STEPSIZE = 0.0185756
_STEPMODE = C
_START = 5
_THETA = 2.5
_2THETA = 5
_KHI = 0
_PHI = 0
_X = 0
_Y = 0
_Z = 0
_DETECTOR = 5
; Detector type : Unknown
_DETECTORSLIT = unkn
_AUX1 = 0
_AUX2 = 0
_AUX3 = 0
_TIMESTARTED = 15
_TEMP_RATE = -1
_TEMP_DELAY = -1
_KV = 40
_MA = 40
_RANGE_WL = 1.5406
_3DPLANE = 0
_V4_ADDITIONALDETECTOR = 257
_V4_PSD2THETA = 3.3682
_V4_PSDCHANNEL1 = 0
_V4_PSDAPERTURE = 12.68
_V4_PSDTYPE = 5
_V4_PSDFIXED = 0
_V4_COUNTERS_MASK = 4096
_V4_DRIVES_MASK = 0
_V4_ENCODERS_MASK = 0
_2THETACOUNTS = 1
; 2THETA  PSD
   5.0000        129
   5.0186        136
   5.0372        123
   5.0557        136
   5.0743        127
   5.0929        137
   5.1115        122
   5.1300        131
   5.1486        105
   5.1672        127
   5.1858        120
   5.2043        111
   5.2229        113
   5.2415        100
   5.2601        127
   5.2786        121
   5.2972         99
   5.3158        112
   5.3344        105
   5.3529        117
   5.3715        117
   5.3901        121
   5.4087        117
   5.4272        119
   5.4458        108
   5.4644         96
   5.4830        108
   5.5015        116
   5.5201        116
   5.5387        129
   5.5573        123
   5.5758        109
   5.5944        113
   5.6130         94
   5.6316        103
   5.6501        117
   5.6687         97
   5.6873        110
   5.7059        105
   5.7244        107
   5.7430        100
   5.7616        107
   5.7802        116
   5.7988         99
   5.8173         96
   5.8359         95
   5.8545         99
   5.8731        107
   5.8916        105
   5.9102         96
   5.9288        105
   5.9474        106
   5.9659        110
   5.9845         91
   6.0031        111
   6.0217         87
   6.0402         95
   6.0588         87
   6.0774        111
   6.0960         91
   6.1145         95
   6.1331         93
   6.1517         90
   6.1703         97
   6.1888         91
   6.2074         99
   6.2260        103
   6.2446        104
   6.2631         77
   6.2817        118
   6.3003         95
   6.3189         91
   6.3374         96
   6.3560         96
   6.3746         92
   6.3932         93
   6.4117        101
   6.4303         98
   6.4489         89
   6.4675         89
   6.4860         98
   6.5046         92
   6.5232         65
   6.5418         90
   6.5604         79
   6.5789         95
   6.5975         76
   6.6161         89
   6.6347         98
   6.6532        111
   6.6718        104
   6.6904         77
   6.7090         87
   6.7275         80
   6.7461         79
   6.7647         86
   6.7833         86
   6.8018         83
   6.8204         81
   6.8390         83
   6.8576         78
   6.8761         72
   6.8947         77
   6.9133         97
   6.9319         83
   6.9504         95
   6.9690         71
   6.9876         75
   7.0062         82
   7.0247         75
   7.0433         93
   7.0619         95
   7.0805         79
   7.0990         96
   7.1176         76
   7.1362         84
   7.1548         78
   7.1733         87
   7.1919         89
   7.2105         75
   7.2291         83
   7.2476         76
   7.2662         82
   7.2848         76
   7.3034         85
   7.3220         71
   7.3405         77
   7.3591         72
   7.3777         77
   7.3963         71
   7.4148         70
   7.4334         95
   7.4520         76
   7.4706         94
   7.4891         66
   7.5077         86
   7.5263         81
   7.5449         80
   7.5634         73
   7.5820        107
   7.6006         83
   7.6192         84
   7.6377         89
   7.6563         86
   7.6749         85
   7.6935         89
   7.7120         87
   7.7306         63
   7.7492         79
   7.7678         85
   7.7863         77
   7.8049         83
   7.8235        102
   7.8421        102
   7.8606         96
   7.8792         86
   7.8978         79
   7.9164         85
   7.9349         95
   7.9535         85
   7.9721         88
   7.9907         91
   8.0092        100
   8.0278         85
   8.0464         98
   8.0650         95
   8.0835         96
   8.1021         80
   8.1207         94
   8.1393         95
   8.1579        100
   8.1764        117
   8.1950         84
   8.2136        101
   8.2322        108
   8.2507         82
   8.2693         94
   8.2879         82
   8.3065        100
   8.3250         85
   8.3436        101
   8.3622         99
   8.3808         96
   8.3993         82
   8.4179         88
   8.4365        107
   8.4551        101
   8.4736         98
   8.4922         95
   8.5108        100
   8.5294        100
   8.5479        109
   8.5665        106
   8.5851        103
   8.6037         92
   8.6222         90
   8.6408         96
   8.6594        100
   8.6780         91
   8.6965         96
   8.7151        114
   8.7337         98
   8.7523        119
   8.7708        109
   8.7894        111
   8.8080         89
   8.8266        108
   8.8451        111
   8.8637        124
   8.8823        106
   8.9009         86
   8.9195        124
   8.9380         90
   8.9566        101
   8.9752        106
   8.9938        100
   9.0123        100
   9.0309        115
   9.0495         97
   9.0681        106
   9.0866        102
   9.1052        102
   9.1238        107
   9.1424         91
   9.1609        104
   9.1795        116
   9.1981        108
   9.2167        114
   9.2352        132
   9.2538        111
   9.2724        115
   9.2910         96
   9.3095        110
   9.3281        101
   9.3467        114
   9.3653        124
   9.3838        114
   9.4024        115
   9.4210        144
   9.4396        105
   9.4581        114
   9.4767        108
   9.4953        117
   9.5139        106
   9.5324        109
   9.5510        114
   9.5696        113
   9.5882        123
   9.6067        104
   9.6253        120
   9.6439        123
   9.6625        101
   9.6811         99
   9.6996        103
   9.7182        114
   9.7368        109
   9.7554        112
   9.7739        100
   9.7925        112
   9.8111        122
   9.8297        139
   9.8482        119
   9.8668        111
   9.8854        130
   9.9040        118
   9.9225        107
   9.9411        110
   9.9597        136
   9.9783        108
   9.9968         90
  10.0154        116
  10.0340        132
  10.0526        126
  10.0711        124
  10.0897        124
  10.1083        120
  10.1269        121
  10.1454        108
  10.1640        122
  10.1826        142
  10.2012        124
  10.2197        109
  10.2383        109
  10.2569        124
  10.2755        115
  10.2940        128
  10.3126        118
  10.3312        125
  10.3498        117
  10.3683        118
  10.3869        125
  10.4055        127
  10.4241        103
  10.4427        127
  10.4612        131
  10.4798        110
  10.4984         99
  10.5170        114
  10.5355        121
  10.5541        128
  10.5727        121
  10.5913        116
  10.6098        103
  10.6284        141
  10.6470        104
  10.6656        132
  10.6841        108
  10.7027        112
  10.7213        132
  10.7399        116
  10.7584        135
  10.7770        126
  10.7956        121
  10.8142        109
  10.8327        121
  10.8513        123
  10.8699        120
  10.8885        123
  10.9070        129
  10.9256        107
  10.9442        110
  10.9628        125
  10.9813        130
  10.9999        108
  11.0185        116
  11.0371        132
  11.0556        118
  11.0742        117
  11.0928        116
  11.1114        113
  11.1299        112
  11.1485        114
  11.1671        102
  11.1857        133
  11.2043        117
  11.2228        114
  11.2414        134
  11.2600        121
  11.2786        121
  11.2971        114
  11.3157        142
  11.3343        127
  11.3529        108
  11.3714        148
  11.3900        122
  11.4086        121
  11.4272        109
  11.4457        119
  11.4643        108
  11.4829        123
  11.5015        117
  11.5200        123
  11.5386        106
  11.5572        124
  11.5758        126
  11.5943        128
  11.6129        103
  11.6315        115
  11.6501        128
  11.6686        103
  11.6872        120
  11.7058        144
  11.7244        124
  11.7429        105
  11.7615        114
  11.7801        103
  11.7987        120
  11.8172        118
  11.8358        119
  11.8544        125
  11.8730        105
  11.8915        113
  11.9101        122
  11.9287        113
  11.9473        103
  11.9659        117
  11.9844        120
  12.0030        115
  12.0216        106
  12.0402         98
  12.0587        122
  12.0773        110
  12.0959        116
  12.1145        106
  12.1330        115
  12.1516        114
  12.1702         94
  12.1888        115
  12.2073        103
  12.2259        126
  12.2445        108
  12.2631        102
  12.2816        106
  12.3002        113
  12.3188        107
  12.3374        104
  12.3559        113
  12.3745         98
  12.3931        120
  12.4117         99
  12.4302        101
  12.4488        114
  12.4674        114
  12.4860        109
  12.5045        104
  12.5231         99
  12.5417        110
  12.5603         97
  12.5788        119
  12.5974         97
  12.6160        104
  12.6346        116
  12.6531        100
  12.6717        110
  12.6903        106
  12.7089         87
  12.7274         97
  12.7460        117
  12.7646        111
  12.7832         97
  12.8018         91
  12.8203        121
  12.8389        109
  12.8575        111
  12.8761        105
  12.8946        111
  12.9132        120
  12.9318        112
  12.9504        112
  12.9689         97
  12.9875        109
  13.0061        102
  13.0247        109
  13.0432        105
  13.0618        100
  13.0804         79
  13.0990        108
  13.1175        104
  13.1361        102
  13.1547         92
  13.1733        101
  13.1918         83
  13.2104         97
  13.2290        110
  13.2476        105
  13.2661        107
  13.2847        101
  13.3033        111
  13.3219         88
  13.3404        111
  13.3590         95
  13.3776         91
  13.3962        120
  13.4147        100
  13.4333        116
  13.4519         97
  13.4705        101
  13.4890        108
  13.5076        109
  13.5262         91
  13.5448        101
  13.5634         98
  13.5819        103
  13.6005         98
  13.6191         98
  13.6377         83
  13.6562        106
  13.6748         90
  13.6934         93
  13.7120         86
  13.7305         87
  13.7491         86
  13.7677        106
  13.7863         97
  13.8048         93
  13.8234         82
  13.8420         90
  13.8606         97
  13.8791         95
  13.8977        105
  13.9163         98
  13.9349        103
  13.9534         79
  13.9720         90
  13.9906        102
  14.0092         81
  14.0277         99
  14.0463         93
  14.0649         69
  14.0835         92
  14.1020         79
  14.1206         87
  14.1392         99
  14.1578        104
  14.1763         89
  14.1949        105
  14.2135         90
  14.2321         74
  14.2506         92
  14.2692         89
  14.2878         86
  14.3064         88
  14.3250        100
  14.3435         83
  14.3621         85
  14.3807         98
  14.3993         87
  14.4178         77
  14.4364         74
  14.4550         75
  14.4736        107
  14.4921         87
  14.5107         79
  14.5293         94
  14.5479         95
  14.5664         87
  14.5850         93
  14.6036         89
  14.6222         81
  14.6407         84
  14.6593         95
  14.6779         76
  14.6965         83
  14.7150         84
  14.7336         89
  14.7522         74
  14.7708         83
  14.7893         99
  14.8079         88
  14.8265         70
  14.8451         83
  14.8636         73
  14.8822         70
  14.9008         87
  14.9194         75
  14.9379         80
  14.9565         80
  14.9751         71
  14.9937         83
  15.0122         66
  15.0308         80
  15.0494         83
  15.0680         87
  15.0866         94
  15.1051         92
  15.1237         87
  15.1423         76
  15.1609         70
  15.1794         73
  15.1980         71
  15.2166         69
  15.2352         94
  15.2537         81
  15.2723         84
  15.2909         83
  15.3095         73
  15.3280         81
  15.3466         89
  15.3652         72
  15.3838         88
  15.4023         76
  15.4209         85
  15.4395         93
  15.4581         66
  15.4766         82
  15.4952         99
  15.5138         86
  15.5324         67
  15.5509         89
  15.5695         62
  15.5881         94
  15.6067         75
  15.6252         68
  15.6438         72
  15.6624         79
  15.6810         77
  15.6995         69
  15.7181         79
  15.7367         74
  15.7553         82
  15.7738        104
  15.7924         71
  15.8110         69
  15.8296         77
  15.8482         81
  15.8667         86
  15.8853         84
  15.9039         78
  15.9225         71
  15.9410         96
  15.9596         82
  15.9782         86
  15.9968         77
  16.0153         80
  16.0339         75
  16.0525         65
  16.0711         80
  16.0896         80
  16.1082         61
  16.1268         90
  16.1454         96
  16.1639         79
  16.1825         84
  16.2011         73
  16.2197         82
  16.2382        103
  16.2568         78
  16.2754         60
  16.2940         83
  16.3125         70
  16.3311         76
  16.3497         61
  16.3683         75
  16.3868         90
  16.4054         67
  16.4240         74
  16.4426         68
  16.4611         68
  16.4797         70
  16.4983         78
  16.5169         68
  16.5354         81
  16.5540         85
  16.5726         78
  16.5912         72
  16.6097         93
  16.6283         77
  16.6469         81
  16.6655         73
  16.6841         76
  16.7026         89
  16.7212         79
  16.7398         79
  16.7584         78
  16.7769         80
  16.7955         82
  16.8141         79
  16.8327         83
  16.8512         92
  16.8698         76
  16.8884         86
  16.9070         79
  16.9255         77
  16.9441         90
  16.9627         67
  16.9813         97
  16.9998         99
  17.0184         82
  17.0370         93
  17.0556         72
  17.0741         98
  17.0927         73
  17.1113         75
  17.1299         78
  17.1484         82
  17.1670         88
  17.1856         91
  17.2042         92
  17.2227         67
  17.2413         74
  17.2599         67
  17.2785         93
  17.2970         71
  17.3156         87
  17.3342         89
  17.3528         61
  17.3713         76
  17.3899         69
  17.4085         73
  17.4271         91
  17.4457         72
  17.4642         74
  17.4828         83
  17.5014         78
  17.5200         83
  17.5385         78
  17.5571         90
  17.5757        100
  17.5943         83
  17.6128        104
  17.6314         84
  17.6500         80
  17.6686         73
  17.6871         86
  17.7057         87
  17.7243         95
  17.7429         70
  17.7614         80
  17.7800         87
  17.7986         82
  17.8172         78
  17.8357         80
  17.8543         77
  17.8729        113
  17.8915         80
  17.9100         79
  17.9286         76
  17.9472         94
  17.9658         74
  17.9843         66
  18.0029         70
  18.0215        101
  18.0401         83
  18.0586         84
  18.0772         69
  18.0958         67
  18.1144         76
  18.1329         91
  18.1515         82
  18.1701         79
  18.1887         75
  18.2073         71
  18.2258         88
  18.2444         80
  18.2630         83
  18.2816         83
  18.3001         85
  18.3187         65
  18.3373         78
  18.3559         79
  18.3744         94
  18.3930         82
  18.4116         72
  18.4302         73
  18.4487         77
  18.4673         77
  18.4859         99
  18.5045         76
  18.5230         92
  18.5416         95
  18.5602         88
  18.5788         78
  18.5973         68
  18.6159         88
  18.6345         81
  18.6531         79
  18.6716         80
  18.6902         94
  18.7088         74
  18.7274         94
  18.7459         93
  18.7645         86
  18.7831         86
  18.8017         96
  18.8202         94
  18.8388         69
  18.8574         91
  18.8760         84
  18.8945         73
  18.9131         96
  18.9317         81
  18.9503         74
  18.9689         96
  18.9874         68
  19.0060         83
  19.0246         85
  19.0432         83
  19.0617         77
  19.0803         94
  19.0989         79
  19.1175         83
  19.1360         84
  19.1546         81
  19.1732         85
  19.1918         97
  19.2103         72
  19.2289         86
  19.2475         91
  19.2661         84
  19.2846         99
  19.3032         75
  19.3218         86
  19.3404         99
  19.3589         74
  19.3775         87
  19.3961         76
  19.4147         75
  19.4332         80
  19.4518         95
  19.4704         82
  19.4890         74
  19.5075         77
  19.5261         94
  19.5447         81
  19.5633         86
  19.5818         84
  19.6004         98
  19.6190         85
  19.6376         83
  19.6561         89
  19.6747         88
  19.6933         96
  19.7119         75
  19.7305         86
  19.7490         74
  19.7676         85
  19.7862         94
  19.8048         91
  19.8233         81
  19.8419         77
  19.8605         66
  19.8791         89
  19.8976         73
  19.9162         71
  19.9348         81
  19.9534         90
  19.9719        107
  19.9905         64
  20.0091         67
  20.0277         93
  20.0462        102
  20.0648         84
  20.0834         99
  20.1020         77
  20.1205         68
  20.1391         95
  20.1577         99
  20.1763         90
  20.1948         86
  20.2134         87
  20.2320         89
  20.2506         82
  20.2691        104
  20.2877         86
  20.3063         86
  20.3249         84
  20.3434         92
  20.3620         96
  20.3806        103
  20.3992         72
  20.4177        115
  20.4363         98
  20.4549         94
  20.4735         84
