; (content of file Y:\Sam\Apurva-07-20-2022\puck4\ML_20220718_3_SJD_0_LaB6-2min.raw)
_FILEVERSION = 3
_SAMPLE = ML_20220718_3_SJD_0_LaB6-2mi
_+SAMPLE = 
_SITE = USA
_USER = Administrator
_GONIOMETER_CODE = 20
; Goniometer : D8 theta/2theta, stage : Unknown
_ATTACHMENTS_CODE = 0
_GONIOMETER_RADIUS = 200.5
_FIXED_DIVSLIT = 0.6
_FIXED_SAMPLESLIT = 0
_SOLLER_SLITS = 2
_FIXED_DETSLIT = 9.55
_MONOCHROMATOR = 0
; Incident beam monochromator : None
_SOLLER_SLITS_2 = N
_THIN_FILM = N
_BETA_FILTER = Y
_FIXED_ANTISLIT = 5.89
_ANALYZER_CODE = 0
; Received beam analyzer : None
_DATEMEASURED = "21-Jul-2022 02:53:54"
_WL_UNIT = A
_WL1 = 1.5406
_WL2 = 1.54439
_WL3 = 1.39222
_WLRATIO = 0.5
_ANODE = Cu
_V4_INF_CREATOR = XRDWizard
_V4_INF_CREATOR_VERSION = V2.9.0.22
_V4_INF_WIZARD_VERSION = V2.9.0.22
_V4_INF_WIZARD_ADDINS = V2.9.0.22
_V4_INF_WIZARD_DOCTYPE = XRD
_V4_INF_OSUSER = McQueenLab
_V4_INF_USER = Administrator
_V4_INF_SITE = USA
_V4_INF_SAMPLEID = ML_20220718_3_SJD_0_LaB6-2mi

; Data for range 1
_DRIVE = COUPLED
_STEPTIME = 5.64
_STEPSIZE = 0.0185756
_STEPMODE = C
_START = 5
_THETA = 2.5
_2THETA = 5
_KHI = 0
_PHI = 0
_X = 0
_Y = 0
_Z = 0
_DETECTOR = 5
; Detector type : Unknown
_DETECTORSLIT = unkn
_AUX1 = 0
_AUX2 = 0
_AUX3 = 0
_TIMESTARTED = 15
_TEMP_RATE = -1
_TEMP_DELAY = -1
_KV = 40
_MA = 40
_RANGE_WL = 1.5406
_3DPLANE = 0
_V4_ADDITIONALDETECTOR = 257
_V4_PSD2THETA = 3.4139
_V4_PSDCHANNEL1 = 0
_V4_PSDAPERTURE = 12.68
_V4_PSDTYPE = 5
_V4_PSDFIXED = 0
_V4_COUNTERS_MASK = 4096
_V4_DRIVES_MASK = 0
_V4_ENCODERS_MASK = 0
_2THETACOUNTS = 1
; 2THETA  PSD
   5.0000        127
   5.0186        125
   5.0372        130
   5.0557        138
   5.0743        113
   5.0929        142
   5.1115        109
   5.1300        140
   5.1486        115
   5.1672        135
   5.1858        113
   5.2043        124
   5.2229        123
   5.2415        119
   5.2601        115
   5.2786        123
   5.2972        111
   5.3158        100
   5.3344         97
   5.3529        123
   5.3715        131
   5.3901         97
   5.4087        121
   5.4272        104
   5.4458        114
   5.4644         94
   5.4830        117
   5.5015        110
   5.5201        102
   5.5387        119
   5.5573        107
   5.5758        119
   5.5944        119
   5.6130        106
   5.6316        104
   5.6501        116
   5.6687        113
   5.6873        124
   5.7059        101
   5.7244        100
   5.7430        107
   5.7616        104
   5.7802        102
   5.7988         88
   5.8173        117
   5.8359        100
   5.8545         87
   5.8731        101
   5.8916         99
   5.9102        106
   5.9288        123
   5.9474         91
   5.9659         92
   5.9845         74
   6.0031        107
   6.0217         91
   6.0402         97
   6.0588        105
   6.0774         98
   6.0960         93
   6.1145         94
   6.1331         99
   6.1517         80
   6.1703         93
   6.1888         91
   6.2074         76
   6.2260         89
   6.2446         91
   6.2631         94
   6.2817         95
   6.3003         98
   6.3189         96
   6.3374        100
   6.3560         82
   6.3746         83
   6.3932         80
   6.4117         95
   6.4303         83
   6.4489         88
   6.4675         90
   6.4860         86
   6.5046         89
   6.5232         97
   6.5418         89
   6.5604         79
   6.5789         77
   6.5975         93
   6.6161         62
   6.6347         76
   6.6532         74
   6.6718         97
   6.6904         89
   6.7090         74
   6.7275         87
   6.7461         77
   6.7647        101
   6.7833         80
   6.8018         90
   6.8204         74
   6.8390         87
   6.8576         83
   6.8761         83
   6.8947         71
   6.9133         75
   6.9319         82
   6.9504         69
   6.9690         77
   6.9876         68
   7.0062         76
   7.0247         82
   7.0433         72
   7.0619         85
   7.0805         68
   7.0990         61
   7.1176         67
   7.1362         90
   7.1548         79
   7.1733         82
   7.1919         76
   7.2105         71
   7.2291         76
   7.2476         73
   7.2662         65
   7.2848         83
   7.3034         88
   7.3220         84
   7.3405         66
   7.3591         70
   7.3777         70
   7.3963         91
   7.4148         90
   7.4334         83
   7.4520         72
   7.4706         76
   7.4891         83
   7.5077         78
   7.5263         82
   7.5449         75
   7.5634         85
   7.5820         86
   7.6006         97
   7.6192         77
   7.6377         86
   7.6563         89
   7.6749         77
   7.6935         81
   7.7120        101
   7.7306         79
   7.7492         90
   7.7678         95
   7.7863         77
   7.8049         87
   7.8235         94
   7.8421         78
   7.8606         93
   7.8792         87
   7.8978         83
   7.9164         68
   7.9349         90
   7.9535         83
   7.9721        110
   7.9907         83
   8.0092         90
   8.0278         81
   8.0464         93
   8.0650         74
   8.0835         92
   8.1021         78
   8.1207         99
   8.1393         83
   8.1579         89
   8.1764         94
   8.1950        101
   8.2136         87
   8.2322         84
   8.2507         97
   8.2693         78
   8.2879        104
   8.3065         97
   8.3250         86
   8.3436         75
   8.3622        115
   8.3808         91
   8.3993         98
   8.4179         96
   8.4365        111
   8.4551         85
   8.4736         96
   8.4922         83
   8.5108         92
   8.5294        109
   8.5479         99
   8.5665         78
   8.5851         99
   8.6037        108
   8.6222         97
   8.6408        110
   8.6594         92
   8.6780         78
   8.6965         82
   8.7151        100
   8.7337        100
   8.7523        104
   8.7708        109
   8.7894         78
   8.8080         97
   8.8266        108
   8.8451        107
   8.8637         92
   8.8823         80
   8.9009         92
   8.9195         93
   8.9380        112
   8.9566         96
   8.9752        104
   8.9938         97
   9.0123        112
   9.0309         98
   9.0495        110
   9.0681        108
   9.0866         97
   9.1052        115
   9.1238        105
   9.1424         96
   9.1609        128
   9.1795         83
   9.1981        111
   9.2167         92
   9.2352        103
   9.2538         94
   9.2724        107
   9.2910        113
   9.3095        111
   9.3281        116
   9.3467        115
   9.3653         84
   9.3838         95
   9.4024        104
   9.4210        104
   9.4396        108
   9.4581         96
   9.4767         99
   9.4953         93
   9.5139        105
   9.5324         98
   9.5510         93
   9.5696        111
   9.5882        102
   9.6067        112
   9.6253        104
   9.6439        100
   9.6625        113
   9.6811        107
   9.6996        103
   9.7182        130
   9.7368        113
   9.7554        111
   9.7739        118
   9.7925         89
   9.8111        108
   9.8297        114
   9.8482        116
   9.8668         96
   9.8854        104
   9.9040        123
   9.9225        124
   9.9411        111
   9.9597        118
   9.9783        108
   9.9968        114
  10.0154        116
  10.0340        120
  10.0526        129
  10.0711        113
  10.0897        123
  10.1083        101
  10.1269        130
  10.1454        117
  10.1640        103
  10.1826        103
  10.2012        100
  10.2197        112
  10.2383        118
  10.2569         99
  10.2755        125
  10.2940         98
  10.3126        113
  10.3312        117
  10.3498        120
  10.3683        116
  10.3869         96
  10.4055        116
  10.4241        121
  10.4427        110
  10.4612        110
  10.4798        103
  10.4984        135
  10.5170        112
  10.5355        116
  10.5541        107
  10.5727        111
  10.5913        101
  10.6098        108
  10.6284        125
  10.6470        111
  10.6656        123
  10.6841        115
  10.7027        118
  10.7213        117
  10.7399         96
  10.7584        134
  10.7770        136
  10.7956        132
  10.8142         91
  10.8327        110
  10.8513        113
  10.8699        123
  10.8885        122
  10.9070        116
  10.9256        140
  10.9442        123
  10.9628        105
  10.9813        136
  10.9999        103
  11.0185         98
  11.0371        118
  11.0556         86
  11.0742        111
  11.0928        111
  11.1114        110
  11.1299        110
  11.1485        112
  11.1671        116
  11.1857         96
  11.2043        127
  11.2228        128
  11.2414        106
  11.2600        129
  11.2786        123
  11.2971         88
  11.3157        120
  11.3343         98
  11.3529        110
  11.3714        109
  11.3900        110
  11.4086        112
  11.4272        112
  11.4457        122
  11.4643        116
  11.4829        121
  11.5015        120
  11.5200        122
  11.5386        124
  11.5572        126
  11.5758        101
  11.5943        118
  11.6129        121
  11.6315        129
  11.6501        126
  11.6686        111
  11.6872        119
  11.7058        125
  11.7244        114
  11.7429        113
  11.7615        109
  11.7801        111
  11.7987        127
  11.8172        103
  11.8358         99
  11.8544        102
  11.8730        114
  11.8915        115
  11.9101        113
  11.9287        103
  11.9473        111
  11.9659        113
  11.9844        135
  12.0030        102
  12.0216        103
  12.0402        105
  12.0587        110
  12.0773         98
  12.0959        118
  12.1145        107
  12.1330        104
  12.1516        105
  12.1702        107
  12.1888         89
  12.2073        114
  12.2259        105
  12.2445        103
  12.2631         97
  12.2816         99
  12.3002        109
  12.3188        117
  12.3374        111
  12.3559        103
  12.3745        116
  12.3931        102
  12.4117        102
  12.4302        108
  12.4488        104
  12.4674         98
  12.4860         96
  12.5045        119
  12.5231        104
  12.5417        119
  12.5603        105
  12.5788         91
  12.5974        116
  12.6160        101
  12.6346        101
  12.6531        109
  12.6717        121
  12.6903         91
  12.7089         96
  12.7274         95
  12.7460         91
  12.7646         96
  12.7832        109
  12.8018        111
  12.8203         97
  12.8389         98
  12.8575         88
  12.8761         88
  12.8946         97
  12.9132         88
  12.9318         96
  12.9504         81
  12.9689         99
  12.9875         95
  13.0061        101
  13.0247         88
  13.0432        118
  13.0618         95
  13.0804         94
  13.0990        110
  13.1175         76
  13.1361        104
  13.1547         91
  13.1733         93
  13.1918         97
  13.2104        115
  13.2290        109
  13.2476         98
  13.2661        100
  13.2847         97
  13.3033         93
  13.3219         89
  13.3404         91
  13.3590         89
  13.3776        100
  13.3962         85
  13.4147         95
  13.4333         81
  13.4519         83
  13.4705         84
  13.4890         97
  13.5076        102
  13.5262         90
  13.5448         88
  13.5634         92
  13.5819         92
  13.6005         99
  13.6191         87
  13.6377         90
  13.6562         90
  13.6748         94
  13.6934         94
  13.7120         95
  13.7305         90
  13.7491         97
  13.7677         85
  13.7863         79
  13.8048         97
  13.8234        103
  13.8420         87
  13.8606         92
  13.8791         93
  13.8977         79
  13.9163         90
  13.9349         91
  13.9534        108
  13.9720         77
  13.9906         83
  14.0092         65
  14.0277        100
  14.0463         94
  14.0649         97
  14.0835         88
  14.1020         86
  14.1206         74
  14.1392         94
  14.1578         77
  14.1763         93
  14.1949         96
  14.2135         94
  14.2321         80
  14.2506         76
  14.2692         94
  14.2878         89
  14.3064         92
  14.3250         86
  14.3435         78
  14.3621         76
  14.3807         87
  14.3993         79
  14.4178         82
  14.4364         79
  14.4550         79
  14.4736         70
  14.4921         86
  14.5107         80
  14.5293         84
  14.5479         71
  14.5664         80
  14.5850         94
  14.6036         91
  14.6222         74
  14.6407         86
  14.6593         92
  14.6779         92
  14.6965         76
  14.7150         72
  14.7336         88
  14.7522         72
  14.7708         85
  14.7893         67
  14.8079         61
  14.8265         78
  14.8451         71
  14.8636         96
  14.8822         68
  14.9008         92
  14.9194         72
  14.9379         77
  14.9565         76
  14.9751         77
  14.9937         78
  15.0122         87
  15.0308         99
  15.0494        109
  15.0680         77
  15.0866         74
  15.1051        109
  15.1237         85
  15.1423         81
  15.1609         87
  15.1794         97
  15.1980         83
  15.2166         83
  15.2352         79
  15.2537         88
  15.2723         78
  15.2909         91
  15.3095         86
  15.3280         75
  15.3466         69
  15.3652         85
  15.3838         85
  15.4023         81
  15.4209         89
  15.4395         80
  15.4581         66
  15.4766         81
  15.4952         89
  15.5138         66
  15.5324         63
  15.5509         95
  15.5695         74
  15.5881         68
  15.6067         71
  15.6252         90
  15.6438         98
  15.6624         82
  15.6810         84
  15.6995         78
  15.7181        101
  15.7367         74
  15.7553         86
  15.7738         72
  15.7924         87
  15.8110         75
  15.8296         83
  15.8482         61
  15.8667         83
  15.8853         83
  15.9039         83
  15.9225         64
  15.9410         93
  15.9596         71
  15.9782         73
  15.9968         86
  16.0153         73
  16.0339         68
  16.0525         85
  16.0711         84
  16.0896         80
  16.1082         71
  16.1268         88
  16.1454         91
  16.1639         81
  16.1825         90
  16.2011         69
  16.2197         67
  16.2382         66
  16.2568         76
  16.2754         71
  16.2940         80
  16.3125         65
  16.3311         85
  16.3497         87
  16.3683         66
  16.3868         86
  16.4054         77
  16.4240         79
  16.4426         94
  16.4611         91
  16.4797         94
  16.4983         89
  16.5169         90
  16.5354         86
  16.5540         91
  16.5726         90
  16.5912         68
  16.6097         74
  16.6283         84
  16.6469         67
  16.6655         84
  16.6841         70
  16.7026         56
  16.7212         77
  16.7398         85
  16.7584         74
  16.7769         94
  16.7955         90
  16.8141         75
  16.8327         75
  16.8512         87
  16.8698         76
  16.8884         75
  16.9070         59
  16.9255         61
  16.9441         75
  16.9627         82
  16.9813         90
  16.9998         66
  17.0184         94
  17.0370         80
  17.0556         98
  17.0741         77
  17.0927         86
  17.1113         73
  17.1299         71
  17.1484         82
  17.1670         74
  17.1856         85
  17.2042         66
  17.2227         90
  17.2413         79
  17.2599         70
  17.2785         76
  17.2970         75
  17.3156         71
  17.3342         76
  17.3528         97
  17.3713         73
  17.3899         71
  17.4085         83
  17.4271         87
  17.4457         83
  17.4642         70
  17.4828         83
  17.5014         73
  17.5200         70
  17.5385         74
  17.5571         77
  17.5757         88
  17.5943         86
  17.6128         71
  17.6314         80
  17.6500         90
  17.6686         92
  17.6871         86
  17.7057         77
  17.7243         82
  17.7429         78
  17.7614         83
  17.7800         79
  17.7986         82
  17.8172         84
  17.8357         78
  17.8543         64
  17.8729         68
  17.8915         77
  17.9100         80
  17.9286         70
  17.9472         65
  17.9658         70
  17.9843         76
  18.0029         82
  18.0215         89
  18.0401         81
  18.0586         71
  18.0772         89
  18.0958         86
  18.1144         81
  18.1329         76
  18.1515         86
  18.1701         98
  18.1887         74
  18.2073         75
  18.2258         74
  18.2444         80
  18.2630         71
  18.2816         77
  18.3001         84
  18.3187         86
  18.3373         74
  18.3559         67
  18.3744         82
  18.3930         65
  18.4116         86
  18.4302         71
  18.4487         77
  18.4673         76
  18.4859         89
  18.5045         90
  18.5230         93
  18.5416         76
  18.5602         69
  18.5788         84
  18.5973         71
  18.6159         85
  18.6345         81
  18.6531         84
  18.6716         87
  18.6902         87
  18.7088         69
  18.7274         81
  18.7459         90
  18.7645         78
  18.7831         80
  18.8017         95
  18.8202         90
  18.8388         84
  18.8574         75
  18.8760         80
  18.8945         85
  18.9131         87
  18.9317         90
  18.9503         92
  18.9689         91
  18.9874         94
  19.0060         87
  19.0246         76
  19.0432         87
  19.0617         73
  19.0803         72
  19.0989         84
  19.1175         76
  19.1360        100
  19.1546         81
  19.1732         81
  19.1918         79
  19.2103         79
  19.2289         71
  19.2475         87
  19.2661         90
  19.2846         76
  19.3032         85
  19.3218         91
  19.3404         82
  19.3589         77
  19.3775         81
  19.3961         75
  19.4147         76
  19.4332         80
  19.4518         99
  19.4704         88
  19.4890         92
  19.5075         81
  19.5261         72
  19.5447         97
  19.5633         78
  19.5818         77
  19.6004         89
  19.6190         85
  19.6376         82
  19.6561         89
  19.6747         88
  19.6933         89
  19.7119         91
  19.7305         68
  19.7490         82
  19.7676         90
  19.7862         85
  19.8048         74
  19.8233         75
  19.8419        100
  19.8605         77
  19.8791        102
  19.8976        110
  19.9162         92
  19.9348         91
  19.9534         97
  19.9719         66
  19.9905         91
  20.0091        101
  20.0277         89
  20.0462         74
  20.0648         83
  20.0834         96
  20.1020         73
  20.1205         83
  20.1391         77
  20.1577         87
  20.1763         84
  20.1948        100
  20.2134        105
  20.2320         93
  20.2506         79
  20.2691        101
  20.2877         82
  20.3063         91
  20.3249         82
  20.3434         93
  20.3620         75
  20.3806         75
  20.3992         73
  20.4177         80
  20.4363         78
  20.4549         95
  20.4735         99
