; (content of file Y:\Sam\Apurva-07-20-2022\puck4\ML_20220718_40_SJD_4_LaB6-1min.raw)
_FILEVERSION = 3
_SAMPLE = ML_20220718_40_SJD_4_LaB6-1min
_+SAMPLE = 
_SITE = USA
_USER = Administrator
_GONIOMETER_CODE = 20
; Goniometer : D8 theta/2theta, stage : Unknown
_ATTACHMENTS_CODE = 0
_GONIOMETER_RADIUS = 200.5
_FIXED_DIVSLIT = 0.6
_FIXED_SAMPLESLIT = 0
_SOLLER_SLITS = 2
_FIXED_DETSLIT = 9.55
_MONOCHROMATOR = 0
; Incident beam monochromator : None
_SOLLER_SLITS_2 = N
_THIN_FILM = N
_BETA_FILTER = Y
_FIXED_ANTISLIT = 5.89
_ANALYZER_CODE = 0
; Received beam analyzer : None
_DATEMEASURED = "26-Jul-2022 10:30:39"
_WL_UNIT = A
_WL1 = 1.5406
_WL2 = 1.54439
_WL3 = 1.39222
_WLRATIO = 0.5
_ANODE = Cu
_V4_INF_CREATOR = XRDWizard
_V4_INF_CREATOR_VERSION = V2.9.0.22
_V4_INF_WIZARD_VERSION = V2.9.0.22
_V4_INF_WIZARD_ADDINS = V2.9.0.22
_V4_INF_WIZARD_DOCTYPE = XRD
_V4_INF_OSUSER = McQueenLab
_V4_INF_USER = Administrator
_V4_INF_SITE = USA
_V4_INF_SAMPLEID = ML_20220718_40_SJD_4_LaB6-1min

; Data for range 1
_DRIVE = COUPLED
_STEPTIME = 4.23
_STEPSIZE = 0.0185756
_STEPMODE = C
_START = 5
_THETA = 2.5
_2THETA = 5
_KHI = 0
_PHI = 0
_X = 0
_Y = 0
_Z = 0
_DETECTOR = 5
; Detector type : Unknown
_DETECTORSLIT = unkn
_AUX1 = 0
_AUX2 = 0
_AUX3 = 0
_TIMESTARTED = 15
_TEMP_RATE = -1
_TEMP_DELAY = -1
_KV = 40
_MA = 40
_RANGE_WL = 1.5406
_3DPLANE = 0
_V4_ADDITIONALDETECTOR = 257
_V4_PSD2THETA = 3.3738
_V4_PSDCHANNEL1 = 0
_V4_PSDAPERTURE = 12.68
_V4_PSDTYPE = 5
_V4_PSDFIXED = 0
_V4_COUNTERS_MASK = 4096
_V4_DRIVES_MASK = 0
_V4_ENCODERS_MASK = 0
_2THETACOUNTS = 1
; 2THETA  PSD
   5.0000        100
   5.0186         97
   5.0372         93
   5.0557         99
   5.0743        102
   5.0929         96
   5.1115         85
   5.1300         96
   5.1486         83
   5.1672         79
   5.1858         95
   5.2043         81
   5.2229         86
   5.2415         80
   5.2601         92
   5.2786         85
   5.2972         87
   5.3158         86
   5.3344         85
   5.3529         71
   5.3715         74
   5.3901         90
   5.4087         70
   5.4272         82
   5.4458         96
   5.4644         65
   5.4830         89
   5.5015         86
   5.5201         75
   5.5387         98
   5.5573         86
   5.5758         82
   5.5944         84
   5.6130         89
   5.6316         56
   5.6501         82
   5.6687         89
   5.6873         81
   5.7059         81
   5.7244         68
   5.7430         77
   5.7616         90
   5.7802         78
   5.7988         91
   5.8173         77
   5.8359         75
   5.8545         69
   5.8731         73
   5.8916         86
   5.9102         76
   5.9288         83
   5.9474         65
   5.9659         75
   5.9845         75
   6.0031         63
   6.0217         61
   6.0402         62
   6.0588         76
   6.0774         77
   6.0960         88
   6.1145         78
   6.1331         58
   6.1517         81
   6.1703         71
   6.1888         68
   6.2074         68
   6.2260         76
   6.2446         73
   6.2631         76
   6.2817         56
   6.3003         82
   6.3189         63
   6.3374         75
   6.3560         78
   6.3746         62
   6.3932         62
   6.4117         66
   6.4303         74
   6.4489         77
   6.4675         63
   6.4860         73
   6.5046         68
   6.5232         67
   6.5418         67
   6.5604         62
   6.5789         59
   6.5975         66
   6.6161         59
   6.6347         41
   6.6532         62
   6.6718         61
   6.6904         57
   6.7090         53
   6.7275         60
   6.7461         66
   6.7647         60
   6.7833         57
   6.8018         48
   6.8204         65
   6.8390         69
   6.8576         63
   6.8761         71
   6.8947         68
   6.9133         58
   6.9319         61
   6.9504         60
   6.9690         58
   6.9876         80
   7.0062         64
   7.0247         61
   7.0433         49
   7.0619         59
   7.0805         68
   7.0990         57
   7.1176         57
   7.1362         66
   7.1548         52
   7.1733         50
   7.1919         58
   7.2105         57
   7.2291         59
   7.2476         62
   7.2662         65
   7.2848         66
   7.3034         54
   7.3220         46
   7.3405         57
   7.3591         53
   7.3777         54
   7.3963         51
   7.4148         49
   7.4334         65
   7.4520         68
   7.4706         47
   7.4891         62
   7.5077         66
   7.5263         62
   7.5449         65
   7.5634         67
   7.5820         61
   7.6006         59
   7.6192         57
   7.6377         59
   7.6563         65
   7.6749         45
   7.6935         52
   7.7120         57
   7.7306         62
   7.7492         67
   7.7678         67
   7.7863         60
   7.8049         88
   7.8235         70
   7.8421         65
   7.8606         76
   7.8792         66
   7.8978         59
   7.9164         56
   7.9349         73
   7.9535         66
   7.9721         61
   7.9907         80
   8.0092         57
   8.0278         84
   8.0464         69
   8.0650         52
   8.0835         62
   8.1021         58
   8.1207         80
   8.1393         73
   8.1579         65
   8.1764         67
   8.1950         75
   8.2136         59
   8.2322         65
   8.2507         70
   8.2693         76
   8.2879         68
   8.3065         67
   8.3250         79
   8.3436         78
   8.3622         60
   8.3808         77
   8.3993         78
   8.4179         70
   8.4365         70
   8.4551         72
   8.4736         63
   8.4922         69
   8.5108         71
   8.5294         78
   8.5479         72
   8.5665         85
   8.5851         76
   8.6037         64
   8.6222         85
   8.6408         80
   8.6594         80
   8.6780         56
   8.6965         79
   8.7151         73
   8.7337         70
   8.7523         72
   8.7708         82
   8.7894         60
   8.8080         64
   8.8266         66
   8.8451         79
   8.8637         67
   8.8823         93
   8.9009         68
   8.9195         70
   8.9380         68
   8.9566         72
   8.9752         68
   8.9938         84
   9.0123         89
   9.0309         84
   9.0495         78
   9.0681         73
   9.0866         71
   9.1052         73
   9.1238         87
   9.1424        102
   9.1609         74
   9.1795         80
   9.1981         58
   9.2167         79
   9.2352         64
   9.2538         75
   9.2724         79
   9.2910         76
   9.3095         89
   9.3281         86
   9.3467         60
   9.3653         90
   9.3838         68
   9.4024         88
   9.4210         91
   9.4396         95
   9.4581         83
   9.4767         76
   9.4953         75
   9.5139         79
   9.5324         79
   9.5510         77
   9.5696         94
   9.5882         88
   9.6067         84
   9.6253         75
   9.6439         84
   9.6625         80
   9.6811         71
   9.6996         81
   9.7182         91
   9.7368         87
   9.7554         85
   9.7739         71
   9.7925         78
   9.8111         86
   9.8297         86
   9.8482         85
   9.8668         76
   9.8854         70
   9.9040         83
   9.9225         88
   9.9411         81
   9.9597         94
   9.9783         65
   9.9968         83
  10.0154         87
  10.0340         91
  10.0526         93
  10.0711        108
  10.0897         90
  10.1083         72
  10.1269         93
  10.1454         78
  10.1640         74
  10.1826         69
  10.2012        106
  10.2197         76
  10.2383         82
  10.2569         80
  10.2755        101
  10.2940         81
  10.3126         96
  10.3312         90
  10.3498         87
  10.3683         72
  10.3869         73
  10.4055         91
  10.4241         95
  10.4427         87
  10.4612         99
  10.4798         85
  10.4984         88
  10.5170         99
  10.5355         79
  10.5541         86
  10.5727         94
  10.5913         78
  10.6098        107
  10.6284         87
  10.6470         92
  10.6656         86
  10.6841        103
  10.7027         86
  10.7213         73
  10.7399        103
  10.7584         92
  10.7770         77
  10.7956         92
  10.8142         85
  10.8327        105
  10.8513        107
  10.8699         88
  10.8885         89
  10.9070         92
  10.9256         69
  10.9442         94
  10.9628        108
  10.9813         82
  10.9999         69
  11.0185         90
  11.0371         85
  11.0556         93
  11.0742         86
  11.0928         80
  11.1114         79
  11.1299         90
  11.1485         91
  11.1671        100
  11.1857         82
  11.2043         91
  11.2228         81
  11.2414         95
  11.2600         90
  11.2786         89
  11.2971         92
  11.3157         73
  11.3343         97
  11.3529         97
  11.3714         90
  11.3900         85
  11.4086         82
  11.4272         95
  11.4457         91
  11.4643         87
  11.4829        102
  11.5015         89
  11.5200         97
  11.5386         85
  11.5572         87
  11.5758         95
  11.5943         86
  11.6129         88
  11.6315         72
  11.6501         82
  11.6686         80
  11.6872         96
  11.7058         87
  11.7244         88
  11.7429        101
  11.7615         86
  11.7801         76
  11.7987         81
  11.8172         82
  11.8358         89
  11.8544         93
  11.8730         76
  11.8915         87
  11.9101         84
  11.9287         89
  11.9473         88
  11.9659         68
  11.9844         76
  12.0030         98
  12.0216         94
  12.0402         86
  12.0587         87
  12.0773         79
  12.0959         77
  12.1145         89
  12.1330         89
  12.1516         87
  12.1702         89
  12.1888         89
  12.2073         89
  12.2259         69
  12.2445         86
  12.2631         77
  12.2816         65
  12.3002        110
  12.3188         76
  12.3374         78
  12.3559         84
  12.3745         74
  12.3931         85
  12.4117         89
  12.4302         90
  12.4488         70
  12.4674         77
  12.4860         80
  12.5045         74
  12.5231         72
  12.5417         71
  12.5603         76
  12.5788         99
  12.5974         92
  12.6160         84
  12.6346         76
  12.6531         72
  12.6717         71
  12.6903         73
  12.7089         98
  12.7274         70
  12.7460         72
  12.7646         83
  12.7832         62
  12.8018         76
  12.8203         85
  12.8389         68
  12.8575         80
  12.8761         67
  12.8946         70
  12.9132         76
  12.9318         70
  12.9504         89
  12.9689         70
  12.9875         81
  13.0061         89
  13.0247         72
  13.0432         75
  13.0618         70
  13.0804         84
  13.0990         90
  13.1175         73
  13.1361         78
  13.1547         76
  13.1733         83
  13.1918         67
  13.2104         67
  13.2290         74
  13.2476         73
  13.2661         82
  13.2847         66
  13.3033         64
  13.3219         67
  13.3404         80
  13.3590         74
  13.3776         79
  13.3962         88
  13.4147         69
  13.4333         61
  13.4519         57
  13.4705         72
  13.4890         78
  13.5076         68
  13.5262         79
  13.5448         63
  13.5634         85
  13.5819         68
  13.6005         67
  13.6191         72
  13.6377         65
  13.6562         74
  13.6748         64
  13.6934         62
  13.7120         64
  13.7305         64
  13.7491         72
  13.7677         63
  13.7863         68
  13.8048         70
  13.8234         65
  13.8420         68
  13.8606         69
  13.8791         83
  13.8977         69
  13.9163         65
  13.9349         73
  13.9534         56
  13.9720         72
  13.9906         66
  14.0092         71
  14.0277         62
  14.0463         71
  14.0649         78
  14.0835         67
  14.1020         63
  14.1206         62
  14.1392         70
  14.1578         63
  14.1763         69
  14.1949         68
  14.2135         62
  14.2321         71
  14.2506         66
  14.2692         58
  14.2878         74
  14.3064         72
  14.3250         72
  14.3435         77
  14.3621         41
  14.3807         80
  14.3993         71
  14.4178         60
  14.4364         63
  14.4550         61
  14.4736         55
  14.4921         82
  14.5107         54
  14.5293         61
  14.5479         65
  14.5664         63
  14.5850         66
  14.6036         60
  14.6222         62
  14.6407         80
  14.6593         58
  14.6779         52
  14.6965         60
  14.7150         63
  14.7336         54
  14.7522         77
  14.7708         63
  14.7893         72
  14.8079         53
  14.8265         58
  14.8451         60
  14.8636         72
  14.8822         67
  14.9008         76
  14.9194         63
  14.9379         66
  14.9565         58
  14.9751         71
  14.9937         64
  15.0122         59
  15.0308         64
  15.0494         52
  15.0680         68
  15.0866         77
  15.1051         68
  15.1237         71
  15.1423         69
  15.1609         49
  15.1794         56
  15.1980         47
  15.2166         55
  15.2352         57
  15.2537         58
  15.2723         49
  15.2909         72
  15.3095         64
  15.3280         76
  15.3466         55
  15.3652         65
  15.3838         68
  15.4023         54
  15.4209         61
  15.4395         60
  15.4581         63
  15.4766         51
  15.4952         70
  15.5138         73
  15.5324         46
  15.5509         51
  15.5695         62
  15.5881         59
  15.6067         56
  15.6252         54
  15.6438         54
  15.6624         60
  15.6810         63
  15.6995         45
  15.7181         50
  15.7367         61
  15.7553         71
  15.7738         59
  15.7924         66
  15.8110         58
  15.8296         59
  15.8482         53
  15.8667         61
  15.8853         62
  15.9039         63
  15.9225         55
  15.9410         56
  15.9596         61
  15.9782         53
  15.9968         66
  16.0153         48
  16.0339         61
  16.0525         49
  16.0711         60
  16.0896         61
  16.1082         48
  16.1268         72
  16.1454         49
  16.1639         60
  16.1825         53
  16.2011         68
  16.2197         56
  16.2382         59
  16.2568         56
  16.2754         56
  16.2940         75
  16.3125         61
  16.3311         72
  16.3497         63
  16.3683         72
  16.3868         55
  16.4054         64
  16.4240         53
  16.4426         52
  16.4611         59
  16.4797         69
  16.4983         55
  16.5169         64
  16.5354         64
  16.5540         63
  16.5726         78
  16.5912         71
  16.6097         63
  16.6283         76
  16.6469         58
  16.6655         57
  16.6841         48
  16.7026         74
  16.7212         61
  16.7398         53
  16.7584         63
  16.7769         61
  16.7955         61
  16.8141         62
  16.8327         72
  16.8512         60
  16.8698         46
  16.8884         66
  16.9070         57
  16.9255         61
  16.9441         43
  16.9627         56
  16.9813         60
  16.9998         56
  17.0184         60
  17.0370         67
  17.0556         46
  17.0741         52
  17.0927         57
  17.1113         52
  17.1299         57
  17.1484         74
  17.1670         60
  17.1856         55
  17.2042         62
  17.2227         58
  17.2413         51
  17.2599         77
  17.2785         57
  17.2970         55
  17.3156         49
  17.3342         58
  17.3528         52
  17.3713         60
  17.3899         45
  17.4085         61
  17.4271         49
  17.4457         62
  17.4642         50
  17.4828         77
  17.5014         66
  17.5200         60
  17.5385         51
  17.5571         59
  17.5757         66
  17.5943         62
  17.6128         58
  17.6314         64
  17.6500         64
  17.6686         62
  17.6871         55
  17.7057         54
  17.7243         68
  17.7429         67
  17.7614         62
  17.7800         50
  17.7986         63
  17.8172         66
  17.8357         64
  17.8543         60
  17.8729         54
  17.8915         67
  17.9100         61
  17.9286         40
  17.9472         62
  17.9658         61
  17.9843         52
  18.0029         51
  18.0215         68
  18.0401         74
  18.0586         65
  18.0772         68
  18.0958         60
  18.1144         56
  18.1329         60
  18.1515         58
  18.1701         50
  18.1887         48
  18.2073         53
  18.2258         74
  18.2444         54
  18.2630         71
  18.2816         61
  18.3001         54
  18.3187         74
  18.3373         59
  18.3559         60
  18.3744         58
  18.3930         65
  18.4116         56
  18.4302         60
  18.4487         72
  18.4673         71
  18.4859         77
  18.5045         59
  18.5230         73
  18.5416         70
  18.5602         53
  18.5788         81
  18.5973         57
  18.6159         53
  18.6345         55
  18.6531         71
  18.6716         61
  18.6902         55
  18.7088         70
  18.7274         66
  18.7459         60
  18.7645         58
  18.7831         58
  18.8017         66
  18.8202         62
  18.8388         54
  18.8574         46
  18.8760         62
  18.8945         50
  18.9131         65
  18.9317         61
  18.9503         63
  18.9689         74
  18.9874         67
  19.0060         64
  19.0246         73
  19.0432         75
  19.0617         70
  19.0803         52
  19.0989         52
  19.1175         61
  19.1360         59
  19.1546         65
  19.1732         69
  19.1918         65
  19.2103         52
  19.2289         72
  19.2475         76
  19.2661         47
  19.2846         62
  19.3032         58
  19.3218         59
  19.3404         64
  19.3589         77
  19.3775         69
  19.3961         58
  19.4147         54
  19.4332         62
  19.4518         76
  19.4704         66
  19.4890         78
  19.5075         56
  19.5261         53
  19.5447         66
  19.5633         60
  19.5818         62
  19.6004         68
  19.6190         53
  19.6376         62
  19.6561         58
  19.6747         52
  19.6933         56
  19.7119         84
  19.7305         60
  19.7490         70
  19.7676         58
  19.7862         66
  19.8048         63
  19.8233         61
  19.8419         83
  19.8605         69
  19.8791         51
  19.8976         67
  19.9162         61
  19.9348         60
  19.9534         68
  19.9719         67
  19.9905         57
  20.0091         63
  20.0277         67
  20.0462         68
  20.0648         71
  20.0834         65
  20.1020         57
  20.1205         68
  20.1391         55
  20.1577         76
  20.1763         63
  20.1948         61
  20.2134         59
  20.2320         61
  20.2506         71
  20.2691         59
  20.2877         61
  20.3063         72
  20.3249         78
  20.3434         71
  20.3620         62
  20.3806         66
  20.3992         70
  20.4177         72
  20.4363         66
  20.4549         74
  20.4735         65
