; (content of file Y:\Sam\Apurva-07-20-2022\puck4\ML_20220718_32_SJD_0_LaB6-2min.raw)
_FILEVERSION = 3
_SAMPLE = ML_20220718_32_SJD_0_LaB6-2min
_+SAMPLE = 
_SITE = USA
_USER = Administrator
_GONIOMETER_CODE = 20
; Goniometer : D8 theta/2theta, stage : Unknown
_ATTACHMENTS_CODE = 0
_GONIOMETER_RADIUS = 200.5
_FIXED_DIVSLIT = 0.6
_FIXED_SAMPLESLIT = 0
_SOLLER_SLITS = 2
_FIXED_DETSLIT = 9.55
_MONOCHROMATOR = 0
; Incident beam monochromator : None
_SOLLER_SLITS_2 = N
_THIN_FILM = N
_BETA_FILTER = Y
_FIXED_ANTISLIT = 5.89
_ANALYZER_CODE = 0
; Received beam analyzer : None
_DATEMEASURED = "26-Jul-2022 09:08:50"
_WL_UNIT = A
_WL1 = 1.5406
_WL2 = 1.54439
_WL3 = 1.39222
_WLRATIO = 0.5
_ANODE = Cu
_V4_INF_CREATOR = XRDWizard
_V4_INF_CREATOR_VERSION = V2.9.0.22
_V4_INF_WIZARD_VERSION = V2.9.0.22
_V4_INF_WIZARD_ADDINS = V2.9.0.22
_V4_INF_WIZARD_DOCTYPE = XRD
_V4_INF_OSUSER = McQueenLab
_V4_INF_USER = Administrator
_V4_INF_SITE = USA
_V4_INF_SAMPLEID = ML_20220718_32_SJD_0_LaB6-2min

; Data for range 1
_DRIVE = COUPLED
_STEPTIME = 5.64
_STEPSIZE = 0.0185756
_STEPMODE = C
_START = 5
_THETA = 2.5
_2THETA = 5
_KHI = 0
_PHI = 0
_X = 0
_Y = 0
_Z = 0
_DETECTOR = 5
; Detector type : Unknown
_DETECTORSLIT = unkn
_AUX1 = 0
_AUX2 = 0
_AUX3 = 0
_TIMESTARTED = 15
_TEMP_RATE = -1
_TEMP_DELAY = -1
_KV = 40
_MA = 40
_RANGE_WL = 1.5406
_3DPLANE = 0
_V4_ADDITIONALDETECTOR = 257
_V4_PSD2THETA = 3.4187
_V4_PSDCHANNEL1 = 0
_V4_PSDAPERTURE = 12.68
_V4_PSDTYPE = 5
_V4_PSDFIXED = 0
_V4_COUNTERS_MASK = 4096
_V4_DRIVES_MASK = 0
_V4_ENCODERS_MASK = 0
_2THETACOUNTS = 1
; 2THETA  PSD
   5.0000        139
   5.0186        134
   5.0372        124
   5.0557        124
   5.0743        125
   5.0929        129
   5.1115        124
   5.1300        132
   5.1486        137
   5.1672        133
   5.1858        122
   5.2043        134
   5.2229        139
   5.2415        134
   5.2601        121
   5.2786        123
   5.2972        109
   5.3158        115
   5.3344        132
   5.3529        114
   5.3715        100
   5.3901        113
   5.4087        131
   5.4272        114
   5.4458        113
   5.4644        104
   5.4830        120
   5.5015        108
   5.5201        114
   5.5387        132
   5.5573        124
   5.5758        111
   5.5944        121
   5.6130        105
   5.6316        109
   5.6501         99
   5.6687         93
   5.6873        116
   5.7059         99
   5.7244        112
   5.7430        103
   5.7616         95
   5.7802         93
   5.7988         88
   5.8173        112
   5.8359         92
   5.8545        107
   5.8731         90
   5.8916         95
   5.9102        105
   5.9288        109
   5.9474        112
   5.9659         91
   5.9845        119
   6.0031         91
   6.0217         83
   6.0402        112
   6.0588         90
   6.0774         99
   6.0960        100
   6.1145         92
   6.1331        111
   6.1517         89
   6.1703         74
   6.1888         93
   6.2074         99
   6.2260         93
   6.2446         97
   6.2631        110
   6.2817         82
   6.3003        102
   6.3189        102
   6.3374         81
   6.3560         94
   6.3746         97
   6.3932        104
   6.4117         87
   6.4303         94
   6.4489         82
   6.4675         90
   6.4860         93
   6.5046         74
   6.5232         91
   6.5418         83
   6.5604         96
   6.5789         89
   6.5975         95
   6.6161         86
   6.6347         95
   6.6532         73
   6.6718         84
   6.6904         78
   6.7090         85
   6.7275         87
   6.7461         86
   6.7647         90
   6.7833         76
   6.8018         93
   6.8204         86
   6.8390         82
   6.8576         76
   6.8761         84
   6.8947         88
   6.9133         89
   6.9319         90
   6.9504         75
   6.9690         99
   6.9876         97
   7.0062         75
   7.0247         78
   7.0433         86
   7.0619         67
   7.0805         75
   7.0990         72
   7.1176         73
   7.1362         63
   7.1548         70
   7.1733         81
   7.1919         85
   7.2105         94
   7.2291        106
   7.2476         83
   7.2662         79
   7.2848         89
   7.3034         76
   7.3220         74
   7.3405         90
   7.3591        101
   7.3777         80
   7.3963         73
   7.4148         68
   7.4334         73
   7.4520         79
   7.4706         93
   7.4891         85
   7.5077         66
   7.5263         79
   7.5449         83
   7.5634         84
   7.5820         82
   7.6006         70
   7.6192         80
   7.6377         93
   7.6563         82
   7.6749         87
   7.6935         88
   7.7120         95
   7.7306         80
   7.7492         94
   7.7678        104
   7.7863         74
   7.8049         96
   7.8235        103
   7.8421        101
   7.8606        100
   7.8792         85
   7.8978         85
   7.9164         94
   7.9349         72
   7.9535        100
   7.9721        107
   7.9907        100
   8.0092         96
   8.0278         91
   8.0464        106
   8.0650         97
   8.0835         84
   8.1021         97
   8.1207         97
   8.1393         79
   8.1579         91
   8.1764         96
   8.1950         92
   8.2136        103
   8.2322         95
   8.2507         84
   8.2693         97
   8.2879         92
   8.3065         85
   8.3250         77
   8.3436         84
   8.3622         86
   8.3808         85
   8.3993         88
   8.4179         87
   8.4365         94
   8.4551        101
   8.4736         95
   8.4922         97
   8.5108        114
   8.5294        101
   8.5479         90
   8.5665        105
   8.5851        112
   8.6037         96
   8.6222        112
   8.6408        101
   8.6594        114
   8.6780         97
   8.6965        108
   8.7151        101
   8.7337         85
   8.7523         93
   8.7708        100
   8.7894        111
   8.8080         83
   8.8266        119
   8.8451         91
   8.8637        111
   8.8823         94
   8.9009        114
   8.9195        110
   8.9380        119
   8.9566        105
   8.9752        127
   8.9938         96
   9.0123        106
   9.0309        100
   9.0495        104
   9.0681        119
   9.0866        120
   9.1052        100
   9.1238        103
   9.1424         97
   9.1609        100
   9.1795        105
   9.1981        119
   9.2167        132
   9.2352         94
   9.2538        110
   9.2724        106
   9.2910        111
   9.3095         97
   9.3281        113
   9.3467        103
   9.3653         99
   9.3838        118
   9.4024        123
   9.4210        114
   9.4396        108
   9.4581        116
   9.4767        119
   9.4953         89
   9.5139        110
   9.5324        106
   9.5510        108
   9.5696        117
   9.5882        141
   9.6067        110
   9.6253        124
   9.6439        122
   9.6625        113
   9.6811        121
   9.6996         96
   9.7182        121
   9.7368        100
   9.7554        115
   9.7739        128
   9.7925        122
   9.8111        115
   9.8297        120
   9.8482        131
   9.8668        132
   9.8854        128
   9.9040        121
   9.9225        119
   9.9411         95
   9.9597        129
   9.9783        103
   9.9968        133
  10.0154        113
  10.0340        131
  10.0526        132
  10.0711        115
  10.0897        121
  10.1083        115
  10.1269        128
  10.1454        127
  10.1640        131
  10.1826        139
  10.2012        139
  10.2197        119
  10.2383        111
  10.2569        119
  10.2755        132
  10.2940        104
  10.3126        113
  10.3312        129
  10.3498        107
  10.3683        115
  10.3869        134
  10.4055        114
  10.4241        139
  10.4427        115
  10.4612        119
  10.4798        115
  10.4984        124
  10.5170        108
  10.5355        144
  10.5541        113
  10.5727        118
  10.5913         95
  10.6098        125
  10.6284        107
  10.6470        124
  10.6656        108
  10.6841        114
  10.7027        105
  10.7213        103
  10.7399         95
  10.7584        104
  10.7770        108
  10.7956        114
  10.8142        110
  10.8327        109
  10.8513        120
  10.8699        132
  10.8885        133
  10.9070        115
  10.9256        115
  10.9442        122
  10.9628        111
  10.9813        116
  10.9999        110
  11.0185        132
  11.0371        139
  11.0556        129
  11.0742        105
  11.0928        116
  11.1114        119
  11.1299        119
  11.1485        148
  11.1671        115
  11.1857        122
  11.2043        101
  11.2228        107
  11.2414        118
  11.2600        120
  11.2786        123
  11.2971        116
  11.3157        109
  11.3343        102
  11.3529        109
  11.3714        128
  11.3900        112
  11.4086        101
  11.4272        111
  11.4457        122
  11.4643        109
  11.4829        117
  11.5015        123
  11.5200        108
  11.5386        112
  11.5572        113
  11.5758        123
  11.5943        116
  11.6129        111
  11.6315        114
  11.6501        106
  11.6686        122
  11.6872        105
  11.7058        110
  11.7244        114
  11.7429        116
  11.7615        101
  11.7801        116
  11.7987        123
  11.8172        116
  11.8358        140
  11.8544        108
  11.8730        128
  11.8915        110
  11.9101        105
  11.9287        112
  11.9473        109
  11.9659        122
  11.9844         73
  12.0030        110
  12.0216        120
  12.0402         95
  12.0587        106
  12.0773        113
  12.0959        120
  12.1145        105
  12.1330        119
  12.1516        118
  12.1702        124
  12.1888        128
  12.2073        130
  12.2259        107
  12.2445        113
  12.2631        104
  12.2816         99
  12.3002        114
  12.3188        115
  12.3374        114
  12.3559        106
  12.3745        113
  12.3931        107
  12.4117         86
  12.4302        116
  12.4488         90
  12.4674        101
  12.4860         85
  12.5045        115
  12.5231        100
  12.5417        104
  12.5603        109
  12.5788         90
  12.5974        114
  12.6160        108
  12.6346        111
  12.6531        120
  12.6717        100
  12.6903         88
  12.7089        101
  12.7274        107
  12.7460         99
  12.7646         87
  12.7832         93
  12.8018        117
  12.8203        101
  12.8389        115
  12.8575        102
  12.8761        105
  12.8946        102
  12.9132        110
  12.9318        111
  12.9504        116
  12.9689        118
  12.9875        114
  13.0061         90
  13.0247         82
  13.0432         99
  13.0618         88
  13.0804        103
  13.0990         88
  13.1175        107
  13.1361        109
  13.1547        110
  13.1733        107
  13.1918         81
  13.2104        110
  13.2290        105
  13.2476         93
  13.2661         92
  13.2847        111
  13.3033         95
  13.3219        101
  13.3404         95
  13.3590        109
  13.3776         95
  13.3962         93
  13.4147        112
  13.4333         91
  13.4519         92
  13.4705         78
  13.4890        109
  13.5076         80
  13.5262         68
  13.5448         94
  13.5634        106
  13.5819         99
  13.6005         96
  13.6191         73
  13.6377        102
  13.6562         95
  13.6748        105
  13.6934        104
  13.7120         90
  13.7305        104
  13.7491         91
  13.7677         84
  13.7863        101
  13.8048         85
  13.8234         93
  13.8420         87
  13.8606         87
  13.8791         87
  13.8977         82
  13.9163         87
  13.9349         85
  13.9534        115
  13.9720         83
  13.9906         73
  14.0092         99
  14.0277        106
  14.0463         80
  14.0649         68
  14.0835         96
  14.1020         84
  14.1206         97
  14.1392        101
  14.1578        107
  14.1763         85
  14.1949         79
  14.2135         88
  14.2321         85
  14.2506         85
  14.2692         88
  14.2878        103
  14.3064         87
  14.3250        100
  14.3435         92
  14.3621         77
  14.3807         83
  14.3993         89
  14.4178         91
  14.4364         93
  14.4550         79
  14.4736         90
  14.4921         97
  14.5107         72
  14.5293        103
  14.5479         91
  14.5664        100
  14.5850         93
  14.6036         89
  14.6222        101
  14.6407         77
  14.6593         91
  14.6779         86
  14.6965        104
  14.7150         96
  14.7336         82
  14.7522         88
  14.7708         83
  14.7893         84
  14.8079         77
  14.8265         98
  14.8451         67
  14.8636         70
  14.8822         78
  14.9008         81
  14.9194         74
  14.9379         71
  14.9565         76
  14.9751         86
  14.9937         93
  15.0122         87
  15.0308         84
  15.0494         80
  15.0680         72
  15.0866         92
  15.1051         92
  15.1237         82
  15.1423         73
  15.1609         79
  15.1794         64
  15.1980         88
  15.2166         86
  15.2352         92
  15.2537         86
  15.2723         77
  15.2909         55
  15.3095        100
  15.3280         80
  15.3466         85
  15.3652         75
  15.3838         63
  15.4023         77
  15.4209         89
  15.4395         92
  15.4581         78
  15.4766         73
  15.4952         92
  15.5138         93
  15.5324         87
  15.5509         73
  15.5695         89
  15.5881         81
  15.6067         88
  15.6252         92
  15.6438         83
  15.6624         96
  15.6810         81
  15.6995         86
  15.7181         87
  15.7367         85
  15.7553         72
  15.7738         70
  15.7924         69
  15.8110         78
  15.8296         91
  15.8482         80
  15.8667         88
  15.8853         82
  15.9039         69
  15.9225         89
  15.9410         85
  15.9596         77
  15.9782         93
  15.9968        101
  16.0153         92
  16.0339         59
  16.0525         85
  16.0711         88
  16.0896         74
  16.1082         65
  16.1268         77
  16.1454         81
  16.1639         66
  16.1825         79
  16.2011         85
  16.2197         71
  16.2382         72
  16.2568         92
  16.2754         76
  16.2940         82
  16.3125         99
  16.3311         96
  16.3497         62
  16.3683         80
  16.3868         63
  16.4054         93
  16.4240         77
  16.4426         74
  16.4611         85
  16.4797         79
  16.4983         78
  16.5169         82
  16.5354         87
  16.5540         79
  16.5726         67
  16.5912         96
  16.6097         79
  16.6283         63
  16.6469         93
  16.6655         77
  16.6841         90
  16.7026         77
  16.7212         82
  16.7398         87
  16.7584         72
  16.7769         81
  16.7955         84
  16.8141         90
  16.8327         82
  16.8512         73
  16.8698         76
  16.8884         74
  16.9070         81
  16.9255         73
  16.9441         79
  16.9627         80
  16.9813         78
  16.9998         75
  17.0184         93
  17.0370         84
  17.0556         75
  17.0741         89
  17.0927         71
  17.1113         72
  17.1299         82
  17.1484         81
  17.1670         72
  17.1856         73
  17.2042         81
  17.2227         66
  17.2413         70
  17.2599         91
  17.2785         92
  17.2970         83
  17.3156         95
  17.3342         65
  17.3528         84
  17.3713         82
  17.3899         93
  17.4085         93
  17.4271         68
  17.4457         82
  17.4642         75
  17.4828         80
  17.5014         73
  17.5200         77
  17.5385         82
  17.5571         83
  17.5757         70
  17.5943         80
  17.6128         73
  17.6314         91
  17.6500         70
  17.6686         80
  17.6871         77
  17.7057         83
  17.7243         86
  17.7429         86
  17.7614         90
  17.7800         93
  17.7986         84
  17.8172         73
  17.8357         83
  17.8543         86
  17.8729         84
  17.8915         84
  17.9100         84
  17.9286         72
  17.9472         89
  17.9658         80
  17.9843         79
  18.0029         89
  18.0215         71
  18.0401         90
  18.0586         69
  18.0772         73
  18.0958         78
  18.1144         87
  18.1329         69
  18.1515         64
  18.1701         89
  18.1887         83
  18.2073        102
  18.2258         84
  18.2444        100
  18.2630         94
  18.2816         78
  18.3001         67
  18.3187         69
  18.3373         96
  18.3559         64
  18.3744         88
  18.3930         85
  18.4116         89
  18.4302         75
  18.4487         78
  18.4673         81
  18.4859         92
  18.5045         90
  18.5230        100
  18.5416         80
  18.5602         79
  18.5788         87
  18.5973         76
  18.6159         78
  18.6345         73
  18.6531         81
  18.6716         80
  18.6902         85
  18.7088         74
  18.7274         79
  18.7459         90
  18.7645        102
  18.7831         87
  18.8017         83
  18.8202         63
  18.8388         76
  18.8574         86
  18.8760        105
  18.8945         90
  18.9131         79
  18.9317         72
  18.9503        103
  18.9689         65
  18.9874         88
  19.0060         96
  19.0246         82
  19.0432         81
  19.0617         84
  19.0803         92
  19.0989         83
  19.1175         93
  19.1360         83
  19.1546         77
  19.1732         78
  19.1918         82
  19.2103         86
  19.2289         96
  19.2475         78
  19.2661         87
  19.2846         88
  19.3032         96
  19.3218         79
  19.3404         80
  19.3589         99
  19.3775         88
  19.3961        111
  19.4147        105
  19.4332         95
  19.4518         81
  19.4704         88
  19.4890         94
  19.5075         72
  19.5261        100
  19.5447         88
  19.5633         65
  19.5818         94
  19.6004         89
  19.6190        102
  19.6376         89
  19.6561         93
  19.6747         86
  19.6933         82
  19.7119         76
  19.7305         85
  19.7490         76
  19.7676         71
  19.7862         88
  19.8048         96
  19.8233         74
  19.8419         78
  19.8605         81
  19.8791         83
  19.8976         75
  19.9162        100
  19.9348         74
  19.9534         96
  19.9719        102
  19.9905         88
  20.0091         79
  20.0277         68
  20.0462         80
  20.0648         90
  20.0834         95
  20.1020         77
  20.1205         95
  20.1391         97
  20.1577         89
  20.1763         75
  20.1948         94
  20.2134        100
  20.2320        103
  20.2506        113
  20.2691         87
  20.2877         84
  20.3063         89
  20.3249         71
  20.3434        103
  20.3620         86
  20.3806         88
  20.3992         97
  20.4177         89
  20.4363         80
  20.4549        101
  20.4735         98
