; (content of file Y:\Sam\Apurva-07-20-2022\puck1\ML_20220721_19_SJD_0_LaB6-4min.raw)
_FILEVERSION = 3
_SAMPLE = ML_20220721_19_SJD_0_LaB6-4min
_+SAMPLE = 
_SITE = USA
_USER = Administrator
_GONIOMETER_CODE = 20
; Goniometer : D8 theta/2theta, stage : Unknown
_ATTACHMENTS_CODE = 0
_GONIOMETER_RADIUS = 200.5
_FIXED_DIVSLIT = 0.6
_FIXED_SAMPLESLIT = 0
_SOLLER_SLITS = 2
_FIXED_DETSLIT = 9.55
_MONOCHROMATOR = 0
; Incident beam monochromator : None
_SOLLER_SLITS_2 = N
_THIN_FILM = N
_BETA_FILTER = Y
_FIXED_ANTISLIT = 5.89
_ANALYZER_CODE = 0
; Received beam analyzer : None
_DATEMEASURED = "25-Jul-2022 15:17:43"
_WL_UNIT = A
_WL1 = 1.5406
_WL2 = 1.54439
_WL3 = 1.39222
_WLRATIO = 0.5
_ANODE = Cu
_V4_INF_CREATOR = XRDWizard
_V4_INF_CREATOR_VERSION = V2.9.0.22
_V4_INF_WIZARD_VERSION = V2.9.0.22
_V4_INF_WIZARD_ADDINS = V2.9.0.22
_V4_INF_WIZARD_DOCTYPE = XRD
_V4_INF_OSUSER = McQueenLab
_V4_INF_USER = Administrator
_V4_INF_SITE = USA
_V4_INF_SAMPLEID = ML_20220721_19_SJD_0_LaB6-4min

; Data for range 1
_DRIVE = COUPLED
_STEPTIME = 11.28
_STEPSIZE = 0.0185756
_STEPMODE = C
_START = 5
_THETA = 2.5
_2THETA = 5
_KHI = 0
_PHI = 0
_X = 0
_Y = 0
_Z = 0
_DETECTOR = 5
; Detector type : Unknown
_DETECTORSLIT = unkn
_AUX1 = 0
_AUX2 = 0
_AUX3 = 0
_TIMESTARTED = 15
_TEMP_RATE = -1
_TEMP_DELAY = -1
_KV = 40
_MA = 40
_RANGE_WL = 1.5406
_3DPLANE = 0
_V4_ADDITIONALDETECTOR = 257
_V4_PSD2THETA = 3.3674
_V4_PSDCHANNEL1 = 0
_V4_PSDAPERTURE = 12.68
_V4_PSDTYPE = 5
_V4_PSDFIXED = 0
_V4_COUNTERS_MASK = 4096
_V4_DRIVES_MASK = 0
_V4_ENCODERS_MASK = 0
_2THETACOUNTS = 1
; 2THETA  PSD
   5.0000        256
   5.0186        278
   5.0372        290
   5.0557        257
   5.0743        253
   5.0929        282
   5.1115        259
   5.1300        240
   5.1486        280
   5.1672        251
   5.1858        278
   5.2043        258
   5.2229        273
   5.2415        246
   5.2601        246
   5.2786        232
   5.2972        251
   5.3158        234
   5.3344        265
   5.3529        237
   5.3715        243
   5.3901        246
   5.4087        244
   5.4272        245
   5.4458        239
   5.4644        216
   5.4830        233
   5.5015        218
   5.5201        227
   5.5387        248
   5.5573        216
   5.5758        219
   5.5944        230
   5.6130        224
   5.6316        205
   5.6501        190
   5.6687        205
   5.6873        221
   5.7059        225
   5.7244        202
   5.7430        213
   5.7616        204
   5.7802        207
   5.7988        194
   5.8173        221
   5.8359        202
   5.8545        195
   5.8731        214
   5.8916        209
   5.9102        186
   5.9288        220
   5.9474        207
   5.9659        231
   5.9845        215
   6.0031        203
   6.0217        191
   6.0402        202
   6.0588        192
   6.0774        173
   6.0960        179
   6.1145        207
   6.1331        192
   6.1517        218
   6.1703        198
   6.1888        188
   6.2074        209
   6.2260        213
   6.2446        200
   6.2631        180
   6.2817        159
   6.3003        198
   6.3189        196
   6.3374        189
   6.3560        181
   6.3746        198
   6.3932        178
   6.4117        180
   6.4303        201
   6.4489        189
   6.4675        199
   6.4860        197
   6.5046        177
   6.5232        163
   6.5418        189
   6.5604        163
   6.5789        180
   6.5975        172
   6.6161        151
   6.6347        199
   6.6532        190
   6.6718        194
   6.6904        151
   6.7090        180
   6.7275        165
   6.7461        182
   6.7647        187
   6.7833        155
   6.8018        168
   6.8204        191
   6.8390        176
   6.8576        190
   6.8761        165
   6.8947        181
   6.9133        202
   6.9319        168
   6.9504        170
   6.9690        159
   6.9876        148
   7.0062        174
   7.0247        169
   7.0433        165
   7.0619        147
   7.0805        142
   7.0990        161
   7.1176        158
   7.1362        176
   7.1548        172
   7.1733        148
   7.1919        168
   7.2105        159
   7.2291        155
   7.2476        170
   7.2662        166
   7.2848        155
   7.3034        171
   7.3220        160
   7.3405        143
   7.3591        179
   7.3777        168
   7.3963        157
   7.4148        160
   7.4334        166
   7.4520        157
   7.4706        170
   7.4891        164
   7.5077        167
   7.5263        169
   7.5449        158
   7.5634        155
   7.5820        173
   7.6006        170
   7.6192        187
   7.6377        193
   7.6563        163
   7.6749        176
   7.6935        181
   7.7120        182
   7.7306        173
   7.7492        158
   7.7678        194
   7.7863        183
   7.8049        195
   7.8235        139
   7.8421        176
   7.8606        181
   7.8792        189
   7.8978        182
   7.9164        184
   7.9349        207
   7.9535        191
   7.9721        187
   7.9907        198
   8.0092        181
   8.0278        187
   8.0464        189
   8.0650        205
   8.0835        173
   8.1021        176
   8.1207        205
   8.1393        187
   8.1579        203
   8.1764        189
   8.1950        189
   8.2136        183
   8.2322        196
   8.2507        204
   8.2693        215
   8.2879        229
   8.3065        227
   8.3250        185
   8.3436        186
   8.3622        184
   8.3808        176
   8.3993        212
   8.4179        191
   8.4365        222
   8.4551        224
   8.4736        192
   8.4922        183
   8.5108        193
   8.5294        192
   8.5479        197
   8.5665        211
   8.5851        201
   8.6037        199
   8.6222        237
   8.6408        205
   8.6594        207
   8.6780        231
   8.6965        209
   8.7151        207
   8.7337        219
   8.7523        219
   8.7708        195
   8.7894        210
   8.8080        200
   8.8266        219
   8.8451        211
   8.8637        186
   8.8823        192
   8.9009        179
   8.9195        199
   8.9380        215
   8.9566        236
   8.9752        214
   8.9938        196
   9.0123        204
   9.0309        226
   9.0495        214
   9.0681        208
   9.0866        227
   9.1052        214
   9.1238        224
   9.1424        212
   9.1609        200
   9.1795        191
   9.1981        211
   9.2167        206
   9.2352        215
   9.2538        195
   9.2724        220
   9.2910        200
   9.3095        243
   9.3281        230
   9.3467        229
   9.3653        246
   9.3838        227
   9.4024        216
   9.4210        196
   9.4396        190
   9.4581        230
   9.4767        217
   9.4953        196
   9.5139        227
   9.5324        221
   9.5510        237
   9.5696        228
   9.5882        254
   9.6067        242
   9.6253        209
   9.6439        207
   9.6625        239
   9.6811        246
   9.6996        205
   9.7182        251
   9.7368        241
   9.7554        236
   9.7739        274
   9.7925        228
   9.8111        249
   9.8297        241
   9.8482        240
   9.8668        239
   9.8854        239
   9.9040        247
   9.9225        250
   9.9411        231
   9.9597        251
   9.9783        282
   9.9968        222
  10.0154        283
  10.0340        206
  10.0526        220
  10.0711        230
  10.0897        257
  10.1083        242
  10.1269        246
  10.1454        296
  10.1640        249
  10.1826        240
  10.2012        247
  10.2197        260
  10.2383        222
  10.2569        228
  10.2755        274
  10.2940        222
  10.3126        260
  10.3312        243
  10.3498        239
  10.3683        246
  10.3869        235
  10.4055        253
  10.4241        241
  10.4427        257
  10.4612        218
  10.4798        231
  10.4984        265
  10.5170        262
  10.5355        252
  10.5541        245
  10.5727        261
  10.5913        251
  10.6098        256
  10.6284        261
  10.6470        270
  10.6656        225
  10.6841        254
  10.7027        255
  10.7213        225
  10.7399        244
  10.7584        240
  10.7770        255
  10.7956        217
  10.8142        230
  10.8327        235
  10.8513        240
  10.8699        237
  10.8885        229
  10.9070        235
  10.9256        268
  10.9442        203
  10.9628        202
  10.9813        258
  10.9999        244
  11.0185        253
  11.0371        233
  11.0556        222
  11.0742        230
  11.0928        241
  11.1114        242
  11.1299        259
  11.1485        241
  11.1671        252
  11.1857        230
  11.2043        230
  11.2228        232
  11.2414        228
  11.2600        252
  11.2786        218
  11.2971        235
  11.3157        217
  11.3343        221
  11.3529        234
  11.3714        269
  11.3900        251
  11.4086        233
  11.4272        236
  11.4457        226
  11.4643        219
  11.4829        225
  11.5015        258
  11.5200        267
  11.5386        244
  11.5572        247
  11.5758        248
  11.5943        230
  11.6129        253
  11.6315        204
  11.6501        237
  11.6686        222
  11.6872        235
  11.7058        242
  11.7244        231
  11.7429        243
  11.7615        235
  11.7801        239
  11.7987        245
  11.8172        207
  11.8358        210
  11.8544        259
  11.8730        236
  11.8915        232
  11.9101        232
  11.9287        224
  11.9473        225
  11.9659        239
  11.9844        241
  12.0030        231
  12.0216        247
  12.0402        201
  12.0587        241
  12.0773        200
  12.0959        219
  12.1145        235
  12.1330        234
  12.1516        235
  12.1702        240
  12.1888        206
  12.2073        262
  12.2259        227
  12.2445        221
  12.2631        226
  12.2816        209
  12.3002        234
  12.3188        211
  12.3374        223
  12.3559        210
  12.3745        221
  12.3931        204
  12.4117        212
  12.4302        223
  12.4488        220
  12.4674        232
  12.4860        238
  12.5045        215
  12.5231        222
  12.5417        210
  12.5603        203
  12.5788        221
  12.5974        229
  12.6160        226
  12.6346        244
  12.6531        236
  12.6717        224
  12.6903        229
  12.7089        252
  12.7274        218
  12.7460        208
  12.7646        199
  12.7832        215
  12.8018        258
  12.8203        205
  12.8389        219
  12.8575        192
  12.8761        192
  12.8946        182
  12.9132        221
  12.9318        220
  12.9504        225
  12.9689        200
  12.9875        246
  13.0061        214
  13.0247        210
  13.0432        188
  13.0618        195
  13.0804        213
  13.0990        211
  13.1175        193
  13.1361        201
  13.1547        202
  13.1733        219
  13.1918        206
  13.2104        199
  13.2290        200
  13.2476        190
  13.2661        207
  13.2847        192
  13.3033        195
  13.3219        213
  13.3404        176
  13.3590        209
  13.3776        190
  13.3962        212
  13.4147        189
  13.4333        216
  13.4519        208
  13.4705        202
  13.4890        229
  13.5076        194
  13.5262        185
  13.5448        184
  13.5634        190
  13.5819        194
  13.6005        193
  13.6191        210
  13.6377        205
  13.6562        178
  13.6748        207
  13.6934        191
  13.7120        189
  13.7305        212
  13.7491        204
  13.7677        189
  13.7863        201
  13.8048        199
  13.8234        201
  13.8420        201
  13.8606        190
  13.8791        181
  13.8977        168
  13.9163        180
  13.9349        186
  13.9534        184
  13.9720        188
  13.9906        198
  14.0092        190
  14.0277        174
  14.0463        167
  14.0649        179
  14.0835        188
  14.1020        198
  14.1206        191
  14.1392        197
  14.1578        167
  14.1763        158
  14.1949        169
  14.2135        181
  14.2321        175
  14.2506        173
  14.2692        178
  14.2878        183
  14.3064        180
  14.3250        201
  14.3435        173
  14.3621        179
  14.3807        194
  14.3993        163
  14.4178        161
  14.4364        182
  14.4550        164
  14.4736        155
  14.4921        193
  14.5107        181
  14.5293        177
  14.5479        178
  14.5664        155
  14.5850        187
  14.6036        176
  14.6222        167
  14.6407        199
  14.6593        184
  14.6779        168
  14.6965        150
  14.7150        180
  14.7336        196
  14.7522        161
  14.7708        165
  14.7893        172
  14.8079        195
  14.8265        188
  14.8451        147
  14.8636        170
  14.8822        174
  14.9008        191
  14.9194        177
  14.9379        187
  14.9565        162
  14.9751        172
  14.9937        186
  15.0122        183
  15.0308        155
  15.0494        176
  15.0680        169
  15.0866        167
  15.1051        164
  15.1237        139
  15.1423        159
  15.1609        204
  15.1794        165
  15.1980        168
  15.2166        171
  15.2352        150
  15.2537        164
  15.2723        161
  15.2909        177
  15.3095        143
  15.3280        155
  15.3466        172
  15.3652        160
  15.3838        167
  15.4023        160
  15.4209        184
  15.4395        174
  15.4581        178
  15.4766        181
  15.4952        162
  15.5138        163
  15.5324        175
  15.5509        182
  15.5695        180
  15.5881        161
  15.6067        164
  15.6252        165
  15.6438        168
  15.6624        162
  15.6810        175
  15.6995        175
  15.7181        155
  15.7367        159
  15.7553        137
  15.7738        147
  15.7924        180
  15.8110        159
  15.8296        157
  15.8482        158
  15.8667        171
  15.8853        143
  15.9039        165
  15.9225        171
  15.9410        152
  15.9596        178
  15.9782        165
  15.9968        170
  16.0153        161
  16.0339        153
  16.0525        171
  16.0711        170
  16.0896        144
  16.1082        171
  16.1268        153
  16.1454        167
  16.1639        170
  16.1825        183
  16.2011        166
  16.2197        154
  16.2382        132
  16.2568        193
  16.2754        184
  16.2940        158
  16.3125        154
  16.3311        169
  16.3497        172
  16.3683        160
  16.3868        166
  16.4054        169
  16.4240        162
  16.4426        176
  16.4611        143
  16.4797        160
  16.4983        145
  16.5169        151
  16.5354        159
  16.5540        168
  16.5726        149
  16.5912        147
  16.6097        152
  16.6283        141
  16.6469        172
  16.6655        169
  16.6841        175
  16.7026        164
  16.7212        167
  16.7398        148
  16.7584        171
  16.7769        157
  16.7955        143
  16.8141        183
  16.8327        155
  16.8512        165
  16.8698        161
  16.8884        167
  16.9070        168
  16.9255        159
  16.9441        172
  16.9627        150
  16.9813        148
  16.9998        164
  17.0184        167
  17.0370        152
  17.0556        176
  17.0741        158
  17.0927        154
  17.1113        156
  17.1299        168
  17.1484        147
  17.1670        175
  17.1856        173
  17.2042        159
  17.2227        176
  17.2413        174
  17.2599        185
  17.2785        160
  17.2970        158
  17.3156        156
  17.3342        157
  17.3528        150
  17.3713        184
  17.3899        163
  17.4085        178
  17.4271        144
  17.4457        151
  17.4642        159
  17.4828        159
  17.5014        162
  17.5200        157
  17.5385        156
  17.5571        151
  17.5757        177
  17.5943        162
  17.6128        167
  17.6314        184
  17.6500        165
  17.6686        176
  17.6871        151
  17.7057        161
  17.7243        160
  17.7429        162
  17.7614        183
  17.7800        188
  17.7986        179
  17.8172        153
  17.8357        156
  17.8543        188
  17.8729        188
  17.8915        158
  17.9100        175
  17.9286        176
  17.9472        164
  17.9658        148
  17.9843        155
  18.0029        162
  18.0215        166
  18.0401        162
  18.0586        173
  18.0772        164
  18.0958        184
  18.1144        177
  18.1329        162
  18.1515        151
  18.1701        167
  18.1887        171
  18.2073        179
  18.2258        159
  18.2444        149
  18.2630        168
  18.2816        158
  18.3001        166
  18.3187        172
  18.3373        152
  18.3559        179
  18.3744        167
  18.3930        163
  18.4116        175
  18.4302        180
  18.4487        175
  18.4673        177
  18.4859        150
  18.5045        186
  18.5230        167
  18.5416        173
  18.5602        184
  18.5788        193
  18.5973        171
  18.6159        181
  18.6345        146
  18.6531        178
  18.6716        201
  18.6902        143
  18.7088        172
  18.7274        171
  18.7459        182
  18.7645        172
  18.7831        181
  18.8017        165
  18.8202        194
  18.8388        170
  18.8574        153
  18.8760        172
  18.8945        172
  18.9131        177
  18.9317        191
  18.9503        153
  18.9689        176
  18.9874        181
  19.0060        179
  19.0246        170
  19.0432        159
  19.0617        180
  19.0803        192
  19.0989        188
  19.1175        209
  19.1360        185
  19.1546        177
  19.1732        173
  19.1918        177
  19.2103        162
  19.2289        177
  19.2475        164
  19.2661        151
  19.2846        173
  19.3032        163
  19.3218        177
  19.3404        179
  19.3589        165
  19.3775        194
  19.3961        173
  19.4147        179
  19.4332        174
  19.4518        161
  19.4704        163
  19.4890        170
  19.5075        162
  19.5261        186
  19.5447        188
  19.5633        162
  19.5818        168
  19.6004        174
  19.6190        168
  19.6376        186
  19.6561        204
  19.6747        183
  19.6933        158
  19.7119        184
  19.7305        167
  19.7490        180
  19.7676        177
  19.7862        182
  19.8048        186
  19.8233        189
  19.8419        173
  19.8605        163
  19.8791        171
  19.8976        169
  19.9162        175
  19.9348        156
  19.9534        151
  19.9719        179
  19.9905        191
  20.0091        171
  20.0277        189
  20.0462        187
  20.0648        172
  20.0834        189
  20.1020        179
  20.1205        188
  20.1391        182
  20.1577        188
  20.1763        195
  20.1948        164
  20.2134        180
  20.2320        158
  20.2506        177
  20.2691        164
  20.2877        173
  20.3063        179
  20.3249        160
  20.3434        169
  20.3620        184
  20.3806        190
  20.3992        157
  20.4177        167
  20.4363        189
  20.4549        200
  20.4735        173
