; (content of file Y:\Sam\Apurva-07-20-2022\puck4\ML_20220718_51_SJD_4_LaB6-2min.raw)
_FILEVERSION = 3
_SAMPLE = ML_20220718_51_SJD_4_LaB6-2min
_+SAMPLE = 
_SITE = USA
_USER = Administrator
_GONIOMETER_CODE = 20
; Goniometer : D8 theta/2theta, stage : Unknown
_ATTACHMENTS_CODE = 0
_GONIOMETER_RADIUS = 200.5
_FIXED_DIVSLIT = 0.6
_FIXED_SAMPLESLIT = 0
_SOLLER_SLITS = 2
_FIXED_DETSLIT = 9.55
_MONOCHROMATOR = 0
; Incident beam monochromator : None
_SOLLER_SLITS_2 = N
_THIN_FILM = N
_BETA_FILTER = Y
_FIXED_ANTISLIT = 5.89
_ANALYZER_CODE = 0
; Received beam analyzer : None
_DATEMEASURED = "26-Jul-2022 12:30:02"
_WL_UNIT = A
_WL1 = 1.5406
_WL2 = 1.54439
_WL3 = 1.39222
_WLRATIO = 0.5
_ANODE = Cu
_V4_INF_CREATOR = XRDWizard
_V4_INF_CREATOR_VERSION = V2.9.0.22
_V4_INF_WIZARD_VERSION = V2.9.0.22
_V4_INF_WIZARD_ADDINS = V2.9.0.22
_V4_INF_WIZARD_DOCTYPE = XRD
_V4_INF_OSUSER = McQueenLab
_V4_INF_USER = Administrator
_V4_INF_SITE = USA
_V4_INF_SAMPLEID = ML_20220718_51_SJD_4_LaB6-2min

; Data for range 1
_DRIVE = COUPLED
_STEPTIME = 5.64
_STEPSIZE = 0.0185756
_STEPMODE = C
_START = 5
_THETA = 2.5
_2THETA = 5
_KHI = 0
_PHI = 0
_X = 0
_Y = 0
_Z = 0
_DETECTOR = 5
; Detector type : Unknown
_DETECTORSLIT = unkn
_AUX1 = 0
_AUX2 = 0
_AUX3 = 0
_TIMESTARTED = 15
_TEMP_RATE = -1
_TEMP_DELAY = -1
_KV = 40
_MA = 40
_RANGE_WL = 1.5406
_3DPLANE = 0
_V4_ADDITIONALDETECTOR = 257
_V4_PSD2THETA = 3.3734
_V4_PSDCHANNEL1 = 0
_V4_PSDAPERTURE = 12.68
_V4_PSDTYPE = 5
_V4_PSDFIXED = 0
_V4_COUNTERS_MASK = 4096
_V4_DRIVES_MASK = 0
_V4_ENCODERS_MASK = 0
_2THETACOUNTS = 1
; 2THETA  PSD
   5.0000        131
   5.0186        139
   5.0372        115
   5.0557        163
   5.0743        122
   5.0929        117
   5.1115        120
   5.1300        123
   5.1486        115
   5.1672        143
   5.1858        118
   5.2043        133
   5.2229        106
   5.2415        109
   5.2601        143
   5.2786        133
   5.2972        111
   5.3158        102
   5.3344        105
   5.3529        126
   5.3715        115
   5.3901        128
   5.4087        126
   5.4272        128
   5.4458        107
   5.4644        119
   5.4830        107
   5.5015        105
   5.5201        106
   5.5387        121
   5.5573        121
   5.5758        115
   5.5944        108
   5.6130        104
   5.6316        104
   5.6501         95
   5.6687        103
   5.6873        103
   5.7059        123
   5.7244        104
   5.7430        105
   5.7616         91
   5.7802         99
   5.7988        100
   5.8173        105
   5.8359        112
   5.8545        112
   5.8731         94
   5.8916         97
   5.9102        107
   5.9288         93
   5.9474        104
   5.9659        102
   5.9845        111
   6.0031        100
   6.0217        102
   6.0402        102
   6.0588         87
   6.0774        106
   6.0960         89
   6.1145         81
   6.1331         98
   6.1517        103
   6.1703         84
   6.1888        108
   6.2074        111
   6.2260        121
   6.2446         89
   6.2631         87
   6.2817        105
   6.3003         97
   6.3189         98
   6.3374         86
   6.3560         88
   6.3746         90
   6.3932         89
   6.4117         83
   6.4303         80
   6.4489         98
   6.4675        102
   6.4860         79
   6.5046         86
   6.5232         98
   6.5418         96
   6.5604         80
   6.5789        101
   6.5975         92
   6.6161         94
   6.6347         80
   6.6532         92
   6.6718         96
   6.6904         98
   6.7090         71
   6.7275         89
   6.7461         84
   6.7647         62
   6.7833         72
   6.8018         79
   6.8204         73
   6.8390         86
   6.8576         84
   6.8761         87
   6.8947         86
   6.9133         82
   6.9319         83
   6.9504         88
   6.9690         72
   6.9876         79
   7.0062         85
   7.0247         86
   7.0433         74
   7.0619         72
   7.0805         79
   7.0990         87
   7.1176         83
   7.1362         90
   7.1548         92
   7.1733         79
   7.1919         89
   7.2105         79
   7.2291         90
   7.2476         82
   7.2662         76
   7.2848         90
   7.3034         76
   7.3220         79
   7.3405         94
   7.3591         78
   7.3777         86
   7.3963         64
   7.4148         73
   7.4334        102
   7.4520         82
   7.4706         93
   7.4891         73
   7.5077         86
   7.5263         93
   7.5449         67
   7.5634         79
   7.5820         97
   7.6006         74
   7.6192         76
   7.6377         89
   7.6563         83
   7.6749         95
   7.6935         72
   7.7120         66
   7.7306         86
   7.7492         69
   7.7678         73
   7.7863         87
   7.8049         86
   7.8235         90
   7.8421         88
   7.8606         89
   7.8792         91
   7.8978         84
   7.9164         97
   7.9349         86
   7.9535         75
   7.9721         93
   7.9907         96
   8.0092        103
   8.0278         97
   8.0464        100
   8.0650         97
   8.0835         92
   8.1021        101
   8.1207         84
   8.1393         95
   8.1579         87
   8.1764         82
   8.1950         85
   8.2136         94
   8.2322         98
   8.2507        108
   8.2693         96
   8.2879         81
   8.3065         95
   8.3250        106
   8.3436         89
   8.3622        108
   8.3808         94
   8.3993         82
   8.4179         90
   8.4365         98
   8.4551         88
   8.4736        103
   8.4922        116
   8.5108        104
   8.5294         97
   8.5479        113
   8.5665         88
   8.5851        102
   8.6037        101
   8.6222        104
   8.6408        118
   8.6594        104
   8.6780        107
   8.6965         94
   8.7151         88
   8.7337        111
   8.7523         93
   8.7708         84
   8.7894         94
   8.8080         94
   8.8266         95
   8.8451        120
   8.8637        100
   8.8823         94
   8.9009        102
   8.9195         98
   8.9380         95
   8.9566         96
   8.9752        115
   8.9938        118
   9.0123        103
   9.0309        106
   9.0495        117
   9.0681        105
   9.0866        121
   9.1052        110
   9.1238        124
   9.1424        117
   9.1609         99
   9.1795        116
   9.1981        109
   9.2167         98
   9.2352        116
   9.2538        121
   9.2724        126
   9.2910        106
   9.3095        113
   9.3281        121
   9.3467        101
   9.3653        100
   9.3838        110
   9.4024        107
   9.4210        107
   9.4396        111
   9.4581         99
   9.4767        114
   9.4953        107
   9.5139        107
   9.5324        108
   9.5510        112
   9.5696        116
   9.5882        120
   9.6067        111
   9.6253        105
   9.6439        106
   9.6625        113
   9.6811        106
   9.6996        113
   9.7182        113
   9.7368        121
   9.7554        110
   9.7739        104
   9.7925        112
   9.8111        110
   9.8297        132
   9.8482        111
   9.8668        110
   9.8854        120
   9.9040        126
   9.9225        123
   9.9411        103
   9.9597        103
   9.9783        103
   9.9968        120
  10.0154         91
  10.0340        104
  10.0526        125
  10.0711        143
  10.0897        109
  10.1083        119
  10.1269        118
  10.1454        105
  10.1640         97
  10.1826        129
  10.2012        117
  10.2197        133
  10.2383        129
  10.2569        106
  10.2755        122
  10.2940        122
  10.3126        119
  10.3312        103
  10.3498        127
  10.3683        133
  10.3869        105
  10.4055        114
  10.4241        118
  10.4427        112
  10.4612        119
  10.4798        109
  10.4984        120
  10.5170        134
  10.5355        118
  10.5541        141
  10.5727        108
  10.5913        111
  10.6098        131
  10.6284        115
  10.6470        141
  10.6656        115
  10.6841        108
  10.7027        139
  10.7213        113
  10.7399        126
  10.7584        111
  10.7770        122
  10.7956        113
  10.8142        121
  10.8327        117
  10.8513        109
  10.8699        130
  10.8885        105
  10.9070        107
  10.9256         99
  10.9442         98
  10.9628        112
  10.9813        131
  10.9999        137
  11.0185        105
  11.0371        120
  11.0556        108
  11.0742        112
  11.0928        112
  11.1114        113
  11.1299        130
  11.1485        128
  11.1671         97
  11.1857        101
  11.2043        107
  11.2228        119
  11.2414        117
  11.2600        118
  11.2786        118
  11.2971        125
  11.3157        101
  11.3343        126
  11.3529        133
  11.3714        105
  11.3900        102
  11.4086        117
  11.4272        101
  11.4457        113
  11.4643        110
  11.4829        131
  11.5015        101
  11.5200        112
  11.5386        120
  11.5572        120
  11.5758        117
  11.5943        102
  11.6129        100
  11.6315        112
  11.6501        122
  11.6686        106
  11.6872         96
  11.7058        133
  11.7244        115
  11.7429        108
  11.7615        112
  11.7801        129
  11.7987         92
  11.8172        128
  11.8358        114
  11.8544        111
  11.8730        118
  11.8915        128
  11.9101        131
  11.9287        110
  11.9473        116
  11.9659         92
  11.9844        112
  12.0030        121
  12.0216        114
  12.0402        103
  12.0587        104
  12.0773        107
  12.0959        119
  12.1145        114
  12.1330        122
  12.1516        107
  12.1702        114
  12.1888        107
  12.2073         95
  12.2259        118
  12.2445        101
  12.2631        108
  12.2816        124
  12.3002         90
  12.3188        105
  12.3374        118
  12.3559        133
  12.3745        108
  12.3931         98
  12.4117        106
  12.4302        109
  12.4488        115
  12.4674        123
  12.4860        104
  12.5045        101
  12.5231        108
  12.5417        116
  12.5603        105
  12.5788        105
  12.5974        109
  12.6160        122
  12.6346        112
  12.6531        111
  12.6717        118
  12.6903         97
  12.7089        108
  12.7274        112
  12.7460         95
  12.7646        105
  12.7832        103
  12.8018         94
  12.8203        115
  12.8389         77
  12.8575        103
  12.8761         97
  12.8946        106
  12.9132        113
  12.9318        120
  12.9504        101
  12.9689         95
  12.9875        106
  13.0061        117
  13.0247        104
  13.0432        121
  13.0618         76
  13.0804        105
  13.0990        102
  13.1175        117
  13.1361        117
  13.1547        102
  13.1733         92
  13.1918        107
  13.2104         89
  13.2290        103
  13.2476        103
  13.2661        107
  13.2847        100
  13.3033         96
  13.3219        100
  13.3404         94
  13.3590         96
  13.3776         89
  13.3962         96
  13.4147        114
  13.4333        101
  13.4519         86
  13.4705         94
  13.4890         93
  13.5076         96
  13.5262         75
  13.5448         97
  13.5634         91
  13.5819        108
  13.6005         94
  13.6191         89
  13.6377        105
  13.6562         96
  13.6748         91
  13.6934         80
  13.7120        111
  13.7305         97
  13.7491         89
  13.7677        103
  13.7863         77
  13.8048        100
  13.8234         80
  13.8420         90
  13.8606         75
  13.8791         93
  13.8977        109
  13.9163         92
  13.9349         81
  13.9534         97
  13.9720         86
  13.9906        100
  14.0092         81
  14.0277         96
  14.0463         72
  14.0649         90
  14.0835         86
  14.1020         84
  14.1206         90
  14.1392        104
  14.1578         92
  14.1763         88
  14.1949         76
  14.2135         89
  14.2321         85
  14.2506        107
  14.2692         87
  14.2878         83
  14.3064         78
  14.3250         78
  14.3435         94
  14.3621         71
  14.3807         82
  14.3993         87
  14.4178        101
  14.4364         91
  14.4550         75
  14.4736        101
  14.4921         86
  14.5107         88
  14.5293         96
  14.5479         88
  14.5664         81
  14.5850         85
  14.6036        105
  14.6222        109
  14.6407         79
  14.6593         72
  14.6779        108
  14.6965         77
  14.7150         62
  14.7336         85
  14.7522         75
  14.7708         85
  14.7893         99
  14.8079         83
  14.8265         80
  14.8451         76
  14.8636         95
  14.8822         94
  14.9008         73
  14.9194         69
  14.9379        103
  14.9565         94
  14.9751         89
  14.9937         88
  15.0122         88
  15.0308         87
  15.0494         82
  15.0680         72
  15.0866         93
  15.1051        104
  15.1237         78
  15.1423         82
  15.1609         94
  15.1794         76
  15.1980         78
  15.2166         80
  15.2352         82
  15.2537         74
  15.2723         93
  15.2909         89
  15.3095         90
  15.3280        104
  15.3466         75
  15.3652         76
  15.3838         82
  15.4023         71
  15.4209         68
  15.4395         80
  15.4581         93
  15.4766         71
  15.4952         98
  15.5138         90
  15.5324         75
  15.5509         72
  15.5695         80
  15.5881         79
  15.6067         64
  15.6252         74
  15.6438         81
  15.6624         74
  15.6810         84
  15.6995         75
  15.7181         86
  15.7367         85
  15.7553         92
  15.7738         80
  15.7924         74
  15.8110         88
  15.8296         79
  15.8482         97
  15.8667        101
  15.8853         75
  15.9039         76
  15.9225         86
  15.9410         80
  15.9596         81
  15.9782         75
  15.9968         88
  16.0153         79
  16.0339         89
  16.0525         86
  16.0711         70
  16.0896         82
  16.1082         82
  16.1268         89
  16.1454         72
  16.1639         76
  16.1825         92
  16.2011         72
  16.2197         83
  16.2382         86
  16.2568         63
  16.2754         93
  16.2940         84
  16.3125         61
  16.3311         83
  16.3497         74
  16.3683         88
  16.3868         85
  16.4054         68
  16.4240         63
  16.4426         83
  16.4611         95
  16.4797         83
  16.4983         70
  16.5169         85
  16.5354         69
  16.5540         88
  16.5726         80
  16.5912         68
  16.6097         74
  16.6283         79
  16.6469         86
  16.6655         88
  16.6841         73
  16.7026         79
  16.7212         99
  16.7398         89
  16.7584         61
  16.7769         80
  16.7955         81
  16.8141         90
  16.8327         84
  16.8512         97
  16.8698         81
  16.8884         82
  16.9070         86
  16.9255         96
  16.9441         72
  16.9627         85
  16.9813         80
  16.9998         76
  17.0184         77
  17.0370         86
  17.0556         77
  17.0741         80
  17.0927         94
  17.1113         69
  17.1299         80
  17.1484         79
  17.1670         83
  17.1856         83
  17.2042         88
  17.2227         78
  17.2413         79
  17.2599         89
  17.2785         81
  17.2970         95
  17.3156         73
  17.3342         90
  17.3528         63
  17.3713         74
  17.3899         81
  17.4085         87
  17.4271         86
  17.4457         88
  17.4642         82
  17.4828         76
  17.5014         86
  17.5200         75
  17.5385         95
  17.5571         87
  17.5757         79
  17.5943         74
  17.6128         86
  17.6314         80
  17.6500         69
  17.6686         84
  17.6871         86
  17.7057         84
  17.7243        101
  17.7429         68
  17.7614         89
  17.7800         74
  17.7986         84
  17.8172         80
  17.8357         84
  17.8543         76
  17.8729         74
  17.8915         86
  17.9100         65
  17.9286         80
  17.9472         79
  17.9658         93
  17.9843         78
  18.0029         80
  18.0215         96
  18.0401         87
  18.0586         88
  18.0772         86
  18.0958         89
  18.1144         79
  18.1329         86
  18.1515         82
  18.1701         76
  18.1887         76
  18.2073         84
  18.2258         87
  18.2444         63
  18.2630         88
  18.2816         96
  18.3001         67
  18.3187         74
  18.3373         97
  18.3559         72
  18.3744         90
  18.3930         77
  18.4116         98
  18.4302         80
  18.4487         76
  18.4673         74
  18.4859         89
  18.5045         74
  18.5230         97
  18.5416         84
  18.5602         83
  18.5788         92
  18.5973         91
  18.6159         76
  18.6345         76
  18.6531         86
  18.6716         68
  18.6902         78
  18.7088         78
  18.7274         75
  18.7459         88
  18.7645         65
  18.7831         71
  18.8017         78
  18.8202         79
  18.8388         89
  18.8574        103
  18.8760         84
  18.8945         88
  18.9131         76
  18.9317         79
  18.9503         90
  18.9689         84
  18.9874        103
  19.0060         76
  19.0246         94
  19.0432         76
  19.0617         90
  19.0803         77
  19.0989         87
  19.1175         99
  19.1360         82
  19.1546         83
  19.1732         81
  19.1918         76
  19.2103        100
  19.2289         84
  19.2475         81
  19.2661         93
  19.2846        103
  19.3032         73
  19.3218         89
  19.3404         96
  19.3589         95
  19.3775         75
  19.3961         78
  19.4147         67
  19.4332         69
  19.4518         85
  19.4704         90
  19.4890         85
  19.5075         77
  19.5261         96
  19.5447         89
  19.5633         96
  19.5818        100
  19.6004        102
  19.6190         86
  19.6376         83
  19.6561         70
  19.6747         91
  19.6933         72
  19.7119        104
  19.7305         95
  19.7490         86
  19.7676         79
  19.7862         99
  19.8048         88
  19.8233         76
  19.8419         77
  19.8605         83
  19.8791        100
  19.8976         99
  19.9162         98
  19.9348         90
  19.9534         89
  19.9719        103
  19.9905         86
  20.0091         83
  20.0277         75
  20.0462         78
  20.0648         79
  20.0834         88
  20.1020         85
  20.1205         86
  20.1391         86
  20.1577         95
  20.1763         92
  20.1948         90
  20.2134         68
  20.2320         99
  20.2506         99
  20.2691         95
  20.2877         93
  20.3063         79
  20.3249         87
  20.3434        103
  20.3620         86
  20.3806         80
  20.3992        104
  20.4177        100
  20.4363         89
  20.4549         95
  20.4735         77
