; (content of file Y:\Sam\Apurva-07-20-2022\puck4\ML_20220718_39_SJD_0_LaB6-2min.raw)
_FILEVERSION = 3
_SAMPLE = ML_20220718_39_SJD_0_LaB6-2min
_+SAMPLE = 
_SITE = USA
_USER = Administrator
_GONIOMETER_CODE = 20
; Goniometer : D8 theta/2theta, stage : Unknown
_ATTACHMENTS_CODE = 0
_GONIOMETER_RADIUS = 200.5
_FIXED_DIVSLIT = 0.6
_FIXED_SAMPLESLIT = 0
_SOLLER_SLITS = 2
_FIXED_DETSLIT = 9.55
_MONOCHROMATOR = 0
; Incident beam monochromator : None
_SOLLER_SLITS_2 = N
_THIN_FILM = N
_BETA_FILTER = Y
_FIXED_ANTISLIT = 5.89
_ANALYZER_CODE = 0
; Received beam analyzer : None
_DATEMEASURED = "26-Jul-2022 08:52:05"
_WL_UNIT = A
_WL1 = 1.5406
_WL2 = 1.54439
_WL3 = 1.39222
_WLRATIO = 0.5
_ANODE = Cu
_V4_INF_CREATOR = XRDWizard
_V4_INF_CREATOR_VERSION = V2.9.0.22
_V4_INF_WIZARD_VERSION = V2.9.0.22
_V4_INF_WIZARD_ADDINS = V2.9.0.22
_V4_INF_WIZARD_DOCTYPE = XRD
_V4_INF_OSUSER = McQueenLab
_V4_INF_USER = Administrator
_V4_INF_SITE = USA
_V4_INF_SAMPLEID = ML_20220718_39_SJD_0_LaB6-2min

; Data for range 1
_DRIVE = COUPLED
_STEPTIME = 5.64
_STEPSIZE = 0.0185756
_STEPMODE = C
_START = 5
_THETA = 2.5
_2THETA = 5
_KHI = 0
_PHI = 0
_X = 0
_Y = 0
_Z = 0
_DETECTOR = 5
; Detector type : Unknown
_DETECTORSLIT = unkn
_AUX1 = 0
_AUX2 = 0
_AUX3 = 0
_TIMESTARTED = 16
_TEMP_RATE = -1
_TEMP_DELAY = -1
_KV = 40
_MA = 40
_RANGE_WL = 1.5406
_3DPLANE = 0
_V4_ADDITIONALDETECTOR = 257
_V4_PSD2THETA = 3.3714
_V4_PSDCHANNEL1 = 0
_V4_PSDAPERTURE = 12.68
_V4_PSDTYPE = 5
_V4_PSDFIXED = 0
_V4_COUNTERS_MASK = 4096
_V4_DRIVES_MASK = 0
_V4_ENCODERS_MASK = 0
_2THETACOUNTS = 1
; 2THETA  PSD
   5.0000        124
   5.0186        139
   5.0372        117
   5.0557        138
   5.0743        116
   5.0929        104
   5.1115        112
   5.1300        120
   5.1486        131
   5.1672        145
   5.1858        141
   5.2043        118
   5.2229        119
   5.2415        111
   5.2601        120
   5.2786        130
   5.2972        117
   5.3158        104
   5.3344        137
   5.3529        111
   5.3715        128
   5.3901        105
   5.4087         98
   5.4272        100
   5.4458         97
   5.4644        113
   5.4830        105
   5.5015        117
   5.5201        126
   5.5387        106
   5.5573        123
   5.5758        128
   5.5944        121
   5.6130        128
   5.6316        111
   5.6501        106
   5.6687         95
   5.6873        114
   5.7059         93
   5.7244        121
   5.7430        123
   5.7616         96
   5.7802         86
   5.7988        106
   5.8173         97
   5.8359        102
   5.8545        117
   5.8731        114
   5.8916        127
   5.9102        111
   5.9288        102
   5.9474         98
   5.9659         89
   5.9845         96
   6.0031        104
   6.0217         99
   6.0402         95
   6.0588         83
   6.0774        103
   6.0960        116
   6.1145         94
   6.1331         93
   6.1517         91
   6.1703         93
   6.1888         90
   6.2074         97
   6.2260         95
   6.2446         91
   6.2631         71
   6.2817         91
   6.3003        100
   6.3189         80
   6.3374         84
   6.3560         93
   6.3746        108
   6.3932         70
   6.4117        106
   6.4303         80
   6.4489         96
   6.4675         84
   6.4860         92
   6.5046         97
   6.5232         81
   6.5418         83
   6.5604         81
   6.5789         75
   6.5975         95
   6.6161         85
   6.6347         99
   6.6532         79
   6.6718         80
   6.6904         87
   6.7090         89
   6.7275         90
   6.7461         61
   6.7647         96
   6.7833        102
   6.8018         75
   6.8204         82
   6.8390         76
   6.8576         79
   6.8761         75
   6.8947         74
   6.9133         87
   6.9319         89
   6.9504         76
   6.9690         83
   6.9876         83
   7.0062         82
   7.0247         68
   7.0433         76
   7.0619         83
   7.0805         86
   7.0990         71
   7.1176         85
   7.1362         73
   7.1548         95
   7.1733         86
   7.1919         82
   7.2105         98
   7.2291         77
   7.2476         74
   7.2662         81
   7.2848         89
   7.3034         77
   7.3220         77
   7.3405         67
   7.3591         82
   7.3777         86
   7.3963         81
   7.4148         81
   7.4334         78
   7.4520         81
   7.4706         76
   7.4891         85
   7.5077         75
   7.5263         78
   7.5449         79
   7.5634         89
   7.5820         88
   7.6006         78
   7.6192         92
   7.6377         77
   7.6563         86
   7.6749         79
   7.6935         70
   7.7120         82
   7.7306         96
   7.7492         83
   7.7678         73
   7.7863         76
   7.8049         98
   7.8235         89
   7.8421        115
   7.8606         78
   7.8792         90
   7.8978         97
   7.9164         91
   7.9349         91
   7.9535         94
   7.9721         93
   7.9907         73
   8.0092         98
   8.0278         93
   8.0464         89
   8.0650         85
   8.0835         86
   8.1021        109
   8.1207         88
   8.1393         83
   8.1579         78
   8.1764         89
   8.1950        102
   8.2136         84
   8.2322        102
   8.2507         85
   8.2693         97
   8.2879        117
   8.3065        111
   8.3250         96
   8.3436         94
   8.3622        107
   8.3808         92
   8.3993        102
   8.4179         95
   8.4365         97
   8.4551        110
   8.4736         95
   8.4922         95
   8.5108        105
   8.5294         87
   8.5479         83
   8.5665        113
   8.5851        104
   8.6037         81
   8.6222         97
   8.6408         86
   8.6594        111
   8.6780        101
   8.6965        103
   8.7151        101
   8.7337         95
   8.7523         93
   8.7708         88
   8.7894        111
   8.8080        111
   8.8266        108
   8.8451        107
   8.8637         91
   8.8823        102
   8.9009         98
   8.9195        121
   8.9380        111
   8.9566        106
   8.9752        106
   8.9938        114
   9.0123        119
   9.0309        109
   9.0495        103
   9.0681        114
   9.0866         87
   9.1052        124
   9.1238        113
   9.1424        104
   9.1609        101
   9.1795        111
   9.1981        113
   9.2167        107
   9.2352        111
   9.2538        107
   9.2724        112
   9.2910        101
   9.3095        118
   9.3281         97
   9.3467        118
   9.3653         99
   9.3838        108
   9.4024        113
   9.4210        123
   9.4396        111
   9.4581        119
   9.4767        102
   9.4953        113
   9.5139        120
   9.5324        112
   9.5510         90
   9.5696         99
   9.5882        112
   9.6067         88
   9.6253        105
   9.6439        132
   9.6625        106
   9.6811        103
   9.6996         96
   9.7182        117
   9.7368        108
   9.7554        104
   9.7739        118
   9.7925        129
   9.8111        103
   9.8297        111
   9.8482        121
   9.8668        109
   9.8854        125
   9.9040        129
   9.9225        117
   9.9411        117
   9.9597        121
   9.9783        114
   9.9968        123
  10.0154        105
  10.0340        117
  10.0526        115
  10.0711        117
  10.0897        123
  10.1083        109
  10.1269        124
  10.1454        111
  10.1640         98
  10.1826        130
  10.2012        120
  10.2197        111
  10.2383        129
  10.2569        127
  10.2755        126
  10.2940        125
  10.3126        125
  10.3312        113
  10.3498        120
  10.3683        121
  10.3869        132
  10.4055        118
  10.4241        102
  10.4427        151
  10.4612        124
  10.4798        115
  10.4984        108
  10.5170        129
  10.5355        106
  10.5541        119
  10.5727        114
  10.5913        115
  10.6098        119
  10.6284        145
  10.6470        113
  10.6656        133
  10.6841        111
  10.7027        122
  10.7213        112
  10.7399        111
  10.7584        134
  10.7770        123
  10.7956        107
  10.8142        111
  10.8327        103
  10.8513        127
  10.8699        123
  10.8885        116
  10.9070        120
  10.9256        127
  10.9442        129
  10.9628        112
  10.9813        112
  10.9999        102
  11.0185        127
  11.0371        112
  11.0556        115
  11.0742        128
  11.0928        134
  11.1114        121
  11.1299        143
  11.1485        113
  11.1671        122
  11.1857        114
  11.2043        120
  11.2228        118
  11.2414        110
  11.2600        119
  11.2786        126
  11.2971        112
  11.3157        106
  11.3343        101
  11.3529        131
  11.3714        119
  11.3900        111
  11.4086        105
  11.4272        108
  11.4457        118
  11.4643        123
  11.4829        116
  11.5015        118
  11.5200        125
  11.5386        119
  11.5572        111
  11.5758        109
  11.5943        126
  11.6129        111
  11.6315        112
  11.6501        115
  11.6686        109
  11.6872        116
  11.7058        128
  11.7244        121
  11.7429        116
  11.7615        101
  11.7801        107
  11.7987        111
  11.8172        106
  11.8358         98
  11.8544        111
  11.8730        128
  11.8915        130
  11.9101         93
  11.9287        104
  11.9473        105
  11.9659        125
  11.9844        119
  12.0030        111
  12.0216        105
  12.0402        109
  12.0587        107
  12.0773        121
  12.0959        128
  12.1145        101
  12.1330        106
  12.1516        124
  12.1702        119
  12.1888        113
  12.2073         97
  12.2259        132
  12.2445        100
  12.2631        107
  12.2816         94
  12.3002        113
  12.3188        100
  12.3374        119
  12.3559        106
  12.3745        105
  12.3931        112
  12.4117        133
  12.4302        133
  12.4488         90
  12.4674        108
  12.4860        108
  12.5045        109
  12.5231        107
  12.5417        105
  12.5603         83
  12.5788        107
  12.5974        115
  12.6160        116
  12.6346        100
  12.6531        111
  12.6717        102
  12.6903        121
  12.7089        125
  12.7274        107
  12.7460         90
  12.7646        101
  12.7832        111
  12.8018        102
  12.8203         84
  12.8389        122
  12.8575         94
  12.8761        116
  12.8946        103
  12.9132        105
  12.9318        100
  12.9504         98
  12.9689         93
  12.9875        113
  13.0061        125
  13.0247        120
  13.0432         98
  13.0618         93
  13.0804         87
  13.0990         92
  13.1175         91
  13.1361        106
  13.1547         97
  13.1733        109
  13.1918        113
  13.2104        104
  13.2290         99
  13.2476         94
  13.2661        105
  13.2847         82
  13.3033         91
  13.3219         97
  13.3404         96
  13.3590         96
  13.3776         93
  13.3962        106
  13.4147        108
  13.4333         97
  13.4519         90
  13.4705         86
  13.4890         81
  13.5076         86
  13.5262         89
  13.5448        105
  13.5634        105
  13.5819         76
  13.6005        119
  13.6191         90
  13.6377         93
  13.6562         99
  13.6748         97
  13.6934         96
  13.7120         96
  13.7305         83
  13.7491         92
  13.7677         78
  13.7863        108
  13.8048         71
  13.8234         95
  13.8420         86
  13.8606         97
  13.8791         93
  13.8977        101
  13.9163        104
  13.9349         86
  13.9534         95
  13.9720         85
  13.9906         88
  14.0092         65
  14.0277         97
  14.0463         81
  14.0649         98
  14.0835         78
  14.1020         89
  14.1206         95
  14.1392         85
  14.1578         81
  14.1763         86
  14.1949         89
  14.2135         98
  14.2321         86
  14.2506         83
  14.2692         97
  14.2878         91
  14.3064         88
  14.3250         97
  14.3435        102
  14.3621         83
  14.3807         81
  14.3993         75
  14.4178         81
  14.4364         77
  14.4550         82
  14.4736         85
  14.4921         93
  14.5107         86
  14.5293         90
  14.5479         80
  14.5664         87
  14.5850         96
  14.6036         82
  14.6222         74
  14.6407         87
  14.6593         68
  14.6779         75
  14.6965         82
  14.7150         96
  14.7336         92
  14.7522         80
  14.7708         74
  14.7893         80
  14.8079         71
  14.8265         97
  14.8451         87
  14.8636         79
  14.8822        101
  14.9008         83
  14.9194         81
  14.9379         77
  14.9565         78
  14.9751         89
  14.9937        104
  15.0122         74
  15.0308         87
  15.0494         61
  15.0680         94
  15.0866         87
  15.1051         82
  15.1237         83
  15.1423        100
  15.1609         64
  15.1794         87
  15.1980         75
  15.2166         90
  15.2352         89
  15.2537         69
  15.2723         64
  15.2909         83
  15.3095         79
  15.3280         84
  15.3466         81
  15.3652         77
  15.3838         88
  15.4023         94
  15.4209         67
  15.4395         72
  15.4581         88
  15.4766         72
  15.4952         80
  15.5138         91
  15.5324        107
  15.5509         69
  15.5695        104
  15.5881         82
  15.6067         73
  15.6252         79
  15.6438         82
  15.6624         81
  15.6810         85
  15.6995         78
  15.7181         82
  15.7367         74
  15.7553         75
  15.7738         90
  15.7924         63
  15.8110         72
  15.8296         79
  15.8482         67
  15.8667         92
  15.8853         64
  15.9039         77
  15.9225         96
  15.9410         78
  15.9596         90
  15.9782         81
  15.9968         86
  16.0153         80
  16.0339         84
  16.0525         81
  16.0711         83
  16.0896         66
  16.1082         69
  16.1268         71
  16.1454         81
  16.1639        105
  16.1825         83
  16.2011         87
  16.2197         79
  16.2382         88
  16.2568         81
  16.2754         91
  16.2940         81
  16.3125         73
  16.3311         75
  16.3497         78
  16.3683         92
  16.3868         66
  16.4054         76
  16.4240         78
  16.4426         89
  16.4611         78
  16.4797         72
  16.4983         63
  16.5169         84
  16.5354         86
  16.5540         89
  16.5726         71
  16.5912         72
  16.6097         73
  16.6283         79
  16.6469         84
  16.6655         76
  16.6841         81
  16.7026         87
  16.7212         88
  16.7398         83
  16.7584         77
  16.7769         91
  16.7955         91
  16.8141         87
  16.8327         76
  16.8512         77
  16.8698         73
  16.8884         82
  16.9070         69
  16.9255         76
  16.9441         76
  16.9627        101
  16.9813         96
  16.9998         82
  17.0184         81
  17.0370         91
  17.0556         76
  17.0741         75
  17.0927         83
  17.1113         85
  17.1299         88
  17.1484         78
  17.1670         75
  17.1856         75
  17.2042         94
  17.2227         81
  17.2413         97
  17.2599         84
  17.2785         82
  17.2970         81
  17.3156         90
  17.3342         66
  17.3528         68
  17.3713         71
  17.3899         82
  17.4085         75
  17.4271         59
  17.4457         80
  17.4642         79
  17.4828         80
  17.5014         94
  17.5200         63
  17.5385         71
  17.5571         94
  17.5757         79
  17.5943         74
  17.6128         76
  17.6314         69
  17.6500         67
  17.6686         86
  17.6871         71
  17.7057         69
  17.7243         75
  17.7429         78
  17.7614         84
  17.7800         72
  17.7986         86
  17.8172         87
  17.8357         72
  17.8543         94
  17.8729         72
  17.8915         80
  17.9100         77
  17.9286         80
  17.9472         74
  17.9658         65
  17.9843         70
  18.0029         74
  18.0215         84
  18.0401         66
  18.0586         80
  18.0772         74
  18.0958         85
  18.1144         78
  18.1329         86
  18.1515         93
  18.1701         89
  18.1887         65
  18.2073         96
  18.2258         82
  18.2444         68
  18.2630         89
  18.2816         80
  18.3001         72
  18.3187         87
  18.3373         91
  18.3559         88
  18.3744         95
  18.3930         85
  18.4116         80
  18.4302         72
  18.4487         83
  18.4673         88
  18.4859         75
  18.5045         77
  18.5230         95
  18.5416         84
  18.5602         99
  18.5788         73
  18.5973         71
  18.6159         94
  18.6345         61
  18.6531         76
  18.6716         78
  18.6902         72
  18.7088         69
  18.7274         74
  18.7459         76
  18.7645         87
  18.7831         90
  18.8017         96
  18.8202         65
  18.8388         80
  18.8574         77
  18.8760         68
  18.8945         83
  18.9131         98
  18.9317         85
  18.9503         83
  18.9689         74
  18.9874         78
  19.0060        101
  19.0246         86
  19.0432         88
  19.0617         89
  19.0803         84
  19.0989         79
  19.1175         79
  19.1360         88
  19.1546         86
  19.1732        105
  19.1918        106
  19.2103         81
  19.2289         77
  19.2475        103
  19.2661         85
  19.2846         80
  19.3032         88
  19.3218         82
  19.3404         93
  19.3589         86
  19.3775         73
  19.3961         77
  19.4147         88
  19.4332         77
  19.4518         96
  19.4704         86
  19.4890         84
  19.5075         91
  19.5261         73
  19.5447         84
  19.5633         88
  19.5818         96
  19.6004         71
  19.6190         76
  19.6376         80
  19.6561        103
  19.6747         77
  19.6933         61
  19.7119         82
  19.7305         86
  19.7490         86
  19.7676         80
  19.7862         85
  19.8048         78
  19.8233        103
  19.8419         81
  19.8605         92
  19.8791         96
  19.8976         84
  19.9162        103
  19.9348         91
  19.9534         91
  19.9719        110
  19.9905         76
  20.0091         82
  20.0277         98
  20.0462         86
  20.0648         90
  20.0834         86
  20.1020         79
  20.1205         80
  20.1391         99
  20.1577         87
  20.1763         87
  20.1948         86
  20.2134         97
  20.2320         86
  20.2506         84
  20.2691         83
  20.2877         90
  20.3063         88
  20.3249         88
  20.3434         93
  20.3620         75
  20.3806         94
  20.3992         88
  20.4177         75
  20.4363         96
  20.4549         88
  20.4735        116
