; (content of file Y:\Sam\Apurva-07-20-2022\puck4\ML_20220718_35_SJD_0_LaB6-2min.raw)
_FILEVERSION = 3
_SAMPLE = ML_20220718_35_SJD_0_LaB6-2min
_+SAMPLE = 
_SITE = USA
_USER = Administrator
_GONIOMETER_CODE = 20
; Goniometer : D8 theta/2theta, stage : Unknown
_ATTACHMENTS_CODE = 0
_GONIOMETER_RADIUS = 200.5
_FIXED_DIVSLIT = 0.6
_FIXED_SAMPLESLIT = 0
_SOLLER_SLITS = 2
_FIXED_DETSLIT = 9.55
_MONOCHROMATOR = 0
; Incident beam monochromator : None
_SOLLER_SLITS_2 = N
_THIN_FILM = N
_BETA_FILTER = Y
_FIXED_ANTISLIT = 5.89
_ANALYZER_CODE = 0
; Received beam analyzer : None
_DATEMEASURED = "26-Jul-2022 09:01:39"
_WL_UNIT = A
_WL1 = 1.5406
_WL2 = 1.54439
_WL3 = 1.39222
_WLRATIO = 0.5
_ANODE = Cu
_V4_INF_CREATOR = XRDWizard
_V4_INF_CREATOR_VERSION = V2.9.0.22
_V4_INF_WIZARD_VERSION = V2.9.0.22
_V4_INF_WIZARD_ADDINS = V2.9.0.22
_V4_INF_WIZARD_DOCTYPE = XRD
_V4_INF_OSUSER = McQueenLab
_V4_INF_USER = Administrator
_V4_INF_SITE = USA
_V4_INF_SAMPLEID = ML_20220718_35_SJD_0_LaB6-2min

; Data for range 1
_DRIVE = COUPLED
_STEPTIME = 5.64
_STEPSIZE = 0.0185756
_STEPMODE = C
_START = 5
_THETA = 2.5
_2THETA = 5
_KHI = 0
_PHI = 0
_X = 0
_Y = 0
_Z = 0
_DETECTOR = 5
; Detector type : Unknown
_DETECTORSLIT = unkn
_AUX1 = 0
_AUX2 = 0
_AUX3 = 0
_TIMESTARTED = 15
_TEMP_RATE = -1
_TEMP_DELAY = -1
_KV = 40
_MA = 40
_RANGE_WL = 1.5406
_3DPLANE = 0
_V4_ADDITIONALDETECTOR = 257
_V4_PSD2THETA = 3.4189
_V4_PSDCHANNEL1 = 0
_V4_PSDAPERTURE = 12.68
_V4_PSDTYPE = 5
_V4_PSDFIXED = 0
_V4_COUNTERS_MASK = 4096
_V4_DRIVES_MASK = 0
_V4_ENCODERS_MASK = 0
_2THETACOUNTS = 1
; 2THETA  PSD
   5.0000        135
   5.0186        103
   5.0372        139
   5.0557        120
   5.0743         97
   5.0929        113
   5.1115        117
   5.1300        131
   5.1486        132
   5.1672        111
   5.1858         93
   5.2043        126
   5.2229        114
   5.2415        135
   5.2601         99
   5.2786        123
   5.2972        135
   5.3158        111
   5.3344        124
   5.3529        131
   5.3715        115
   5.3901        142
   5.4087        138
   5.4272        123
   5.4458        105
   5.4644        110
   5.4830        100
   5.5015         98
   5.5201        118
   5.5387        118
   5.5573        104
   5.5758         89
   5.5944        111
   5.6130        119
   5.6316        129
   5.6501        112
   5.6687         95
   5.6873        109
   5.7059        104
   5.7244        115
   5.7430         95
   5.7616         88
   5.7802         97
   5.7988         77
   5.8173        126
   5.8359         91
   5.8545        106
   5.8731         93
   5.8916        109
   5.9102        102
   5.9288         96
   5.9474        102
   5.9659        101
   5.9845        107
   6.0031         98
   6.0217        107
   6.0402         92
   6.0588         92
   6.0774         83
   6.0960        100
   6.1145         99
   6.1331         80
   6.1517        112
   6.1703        110
   6.1888        106
   6.2074         92
   6.2260         96
   6.2446        108
   6.2631         91
   6.2817         94
   6.3003         91
   6.3189        107
   6.3374         82
   6.3560         94
   6.3746        102
   6.3932        102
   6.4117         94
   6.4303         77
   6.4489         87
   6.4675         89
   6.4860        105
   6.5046         79
   6.5232         87
   6.5418         91
   6.5604         86
   6.5789         84
   6.5975         80
   6.6161         95
   6.6347        107
   6.6532         86
   6.6718         89
   6.6904         84
   6.7090         80
   6.7275         77
   6.7461         86
   6.7647         90
   6.7833         81
   6.8018         87
   6.8204         82
   6.8390         62
   6.8576         88
   6.8761         87
   6.8947         93
   6.9133         82
   6.9319         79
   6.9504         61
   6.9690         70
   6.9876         82
   7.0062         81
   7.0247         79
   7.0433         66
   7.0619         59
   7.0805         88
   7.0990         81
   7.1176         62
   7.1362         80
   7.1548         73
   7.1733         84
   7.1919         98
   7.2105         81
   7.2291         82
   7.2476         92
   7.2662         66
   7.2848         93
   7.3034         78
   7.3220         75
   7.3405         69
   7.3591         97
   7.3777         78
   7.3963         81
   7.4148         79
   7.4334         94
   7.4520         82
   7.4706         76
   7.4891         85
   7.5077         69
   7.5263         83
   7.5449         89
   7.5634         81
   7.5820         82
   7.6006         81
   7.6192         85
   7.6377         75
   7.6563         80
   7.6749         99
   7.6935         97
   7.7120        102
   7.7306         85
   7.7492        100
   7.7678         82
   7.7863         94
   7.8049         94
   7.8235         88
   7.8421         97
   7.8606         87
   7.8792         82
   7.8978         76
   7.9164         90
   7.9349         96
   7.9535         76
   7.9721        112
   7.9907        101
   8.0092         97
   8.0278         89
   8.0464         92
   8.0650         83
   8.0835         92
   8.1021        102
   8.1207         84
   8.1393         97
   8.1579         87
   8.1764         85
   8.1950         88
   8.2136         96
   8.2322        105
   8.2507         92
   8.2693         77
   8.2879         71
   8.3065         75
   8.3250         96
   8.3436        104
   8.3622         76
   8.3808         88
   8.3993         95
   8.4179        112
   8.4365        102
   8.4551         87
   8.4736         85
   8.4922         86
   8.5108         92
   8.5294         89
   8.5479         90
   8.5665        102
   8.5851         86
   8.6037         98
   8.6222         84
   8.6408         98
   8.6594        115
   8.6780         92
   8.6965        116
   8.7151        108
   8.7337         95
   8.7523        116
   8.7708        100
   8.7894         95
   8.8080        105
   8.8266        104
   8.8451        103
   8.8637        107
   8.8823         92
   8.9009        104
   8.9195         94
   8.9380         94
   8.9566        119
   8.9752         96
   8.9938        101
   9.0123        105
   9.0309        117
   9.0495        119
   9.0681        101
   9.0866         95
   9.1052        101
   9.1238        107
   9.1424        113
   9.1609        120
   9.1795        104
   9.1981        115
   9.2167         97
   9.2352        110
   9.2538        110
   9.2724        100
   9.2910        108
   9.3095         95
   9.3281         96
   9.3467        117
   9.3653        126
   9.3838        114
   9.4024        103
   9.4210        108
   9.4396        117
   9.4581        110
   9.4767         97
   9.4953        110
   9.5139        128
   9.5324        119
   9.5510        122
   9.5696         92
   9.5882        127
   9.6067         96
   9.6253        107
   9.6439        107
   9.6625        110
   9.6811        112
   9.6996        103
   9.7182         95
   9.7368        109
   9.7554        120
   9.7739        114
   9.7925        109
   9.8111        112
   9.8297        115
   9.8482        118
   9.8668        116
   9.8854        109
   9.9040        129
   9.9225        116
   9.9411        131
   9.9597        122
   9.9783        112
   9.9968        110
  10.0154        123
  10.0340        123
  10.0526        114
  10.0711        113
  10.0897        124
  10.1083        131
  10.1269        132
  10.1454        125
  10.1640        124
  10.1826        111
  10.2012        118
  10.2197         97
  10.2383        129
  10.2569        121
  10.2755        112
  10.2940        109
  10.3126         99
  10.3312        142
  10.3498        115
  10.3683        125
  10.3869        123
  10.4055        136
  10.4241        114
  10.4427        128
  10.4612        133
  10.4798        131
  10.4984        116
  10.5170        109
  10.5355        110
  10.5541        122
  10.5727        145
  10.5913        102
  10.6098        120
  10.6284        115
  10.6470        120
  10.6656        121
  10.6841        120
  10.7027        138
  10.7213        123
  10.7399        128
  10.7584        100
  10.7770        114
  10.7956        104
  10.8142        100
  10.8327        139
  10.8513        123
  10.8699        122
  10.8885        127
  10.9070        122
  10.9256        123
  10.9442        115
  10.9628        133
  10.9813        113
  10.9999        131
  11.0185        132
  11.0371        117
  11.0556        108
  11.0742        121
  11.0928        103
  11.1114        120
  11.1299        114
  11.1485        120
  11.1671        117
  11.1857        137
  11.2043        116
  11.2228        108
  11.2414        121
  11.2600        118
  11.2786        133
  11.2971        119
  11.3157        115
  11.3343        118
  11.3529        114
  11.3714        141
  11.3900        114
  11.4086        124
  11.4272        119
  11.4457        123
  11.4643        130
  11.4829        126
  11.5015        115
  11.5200        115
  11.5386        107
  11.5572        113
  11.5758        135
  11.5943        103
  11.6129        133
  11.6315        111
  11.6501        135
  11.6686        117
  11.6872        118
  11.7058        102
  11.7244         90
  11.7429        104
  11.7615        107
  11.7801        141
  11.7987        113
  11.8172        124
  11.8358        105
  11.8544        117
  11.8730        135
  11.8915        126
  11.9101        122
  11.9287        130
  11.9473        106
  11.9659         92
  11.9844         98
  12.0030        109
  12.0216        116
  12.0402        124
  12.0587        125
  12.0773        112
  12.0959        124
  12.1145        118
  12.1330        106
  12.1516        104
  12.1702         98
  12.1888         93
  12.2073        135
  12.2259         97
  12.2445        117
  12.2631        116
  12.2816        112
  12.3002        118
  12.3188        142
  12.3374        114
  12.3559        123
  12.3745        105
  12.3931        110
  12.4117        120
  12.4302         96
  12.4488        115
  12.4674        112
  12.4860         92
  12.5045        105
  12.5231         95
  12.5417         95
  12.5603        104
  12.5788        120
  12.5974         84
  12.6160        130
  12.6346         89
  12.6531        104
  12.6717         99
  12.6903        108
  12.7089         96
  12.7274        121
  12.7460        110
  12.7646         98
  12.7832        107
  12.8018        100
  12.8203        111
  12.8389         88
  12.8575         99
  12.8761         92
  12.8946         87
  12.9132        111
  12.9318        106
  12.9504        102
  12.9689         98
  12.9875         99
  13.0061         99
  13.0247        109
  13.0432         97
  13.0618        123
  13.0804        116
  13.0990        106
  13.1175        100
  13.1361        112
  13.1547        107
  13.1733        103
  13.1918        104
  13.2104         96
  13.2290        104
  13.2476         98
  13.2661         87
  13.2847        112
  13.3033        114
  13.3219        108
  13.3404        113
  13.3590        124
  13.3776        102
  13.3962        114
  13.4147         99
  13.4333         95
  13.4519         91
  13.4705        113
  13.4890         96
  13.5076         82
  13.5262         90
  13.5448         97
  13.5634         97
  13.5819         88
  13.6005         70
  13.6191         83
  13.6377        106
  13.6562        107
  13.6748         88
  13.6934        110
  13.7120         95
  13.7305         86
  13.7491         87
  13.7677         98
  13.7863        102
  13.8048         93
  13.8234        101
  13.8420         92
  13.8606        110
  13.8791         85
  13.8977         96
  13.9163         91
  13.9349         90
  13.9534         83
  13.9720         95
  13.9906         99
  14.0092        111
  14.0277         86
  14.0463         89
  14.0649         85
  14.0835         98
  14.1020         90
  14.1206         90
  14.1392         98
  14.1578         84
  14.1763         77
  14.1949         89
  14.2135         70
  14.2321         90
  14.2506         92
  14.2692         69
  14.2878         97
  14.3064         82
  14.3250        103
  14.3435         72
  14.3621         87
  14.3807         82
  14.3993         97
  14.4178         80
  14.4364         85
  14.4550         94
  14.4736         65
  14.4921         83
  14.5107         87
  14.5293         92
  14.5479         84
  14.5664         90
  14.5850         94
  14.6036         75
  14.6222        108
  14.6407         88
  14.6593         82
  14.6779         80
  14.6965         75
  14.7150         78
  14.7336         87
  14.7522         82
  14.7708         72
  14.7893         65
  14.8079         72
  14.8265         79
  14.8451         53
  14.8636         73
  14.8822         89
  14.9008         92
  14.9194         80
  14.9379         87
  14.9565         97
  14.9751         65
  14.9937         79
  15.0122         89
  15.0308         95
  15.0494         77
  15.0680         88
  15.0866         91
  15.1051         74
  15.1237         90
  15.1423         80
  15.1609         84
  15.1794         82
  15.1980         68
  15.2166         78
  15.2352         77
  15.2537         86
  15.2723         88
  15.2909         80
  15.3095         96
  15.3280         83
  15.3466        104
  15.3652         93
  15.3838         74
  15.4023         85
  15.4209         76
  15.4395        102
  15.4581         83
  15.4766         91
  15.4952         89
  15.5138         86
  15.5324         82
  15.5509         73
  15.5695         89
  15.5881         98
  15.6067         68
  15.6252         61
  15.6438         74
  15.6624         84
  15.6810         98
  15.6995         88
  15.7181         82
  15.7367         73
  15.7553         82
  15.7738         88
  15.7924         81
  15.8110         72
  15.8296         73
  15.8482         82
  15.8667         87
  15.8853         83
  15.9039         79
  15.9225         78
  15.9410         74
  15.9596        109
  15.9782         89
  15.9968         54
  16.0153         77
  16.0339         75
  16.0525         85
  16.0711         68
  16.0896         67
  16.1082         85
  16.1268         90
  16.1454         95
  16.1639         83
  16.1825         82
  16.2011         72
  16.2197         80
  16.2382         78
  16.2568         88
  16.2754         69
  16.2940         75
  16.3125         87
  16.3311         89
  16.3497         91
  16.3683         89
  16.3868         75
  16.4054         82
  16.4240         70
  16.4426         88
  16.4611         89
  16.4797         82
  16.4983         78
  16.5169         86
  16.5354         85
  16.5540         79
  16.5726         88
  16.5912         94
  16.6097         79
  16.6283         91
  16.6469         92
  16.6655         79
  16.6841        103
  16.7026         83
  16.7212         83
  16.7398         83
  16.7584         79
  16.7769         77
  16.7955         89
  16.8141         86
  16.8327         89
  16.8512         73
  16.8698         81
  16.8884         82
  16.9070         86
  16.9255        102
  16.9441         85
  16.9627         64
  16.9813         73
  16.9998         79
  17.0184         90
  17.0370         88
  17.0556         63
  17.0741         73
  17.0927         58
  17.1113         90
  17.1299         90
  17.1484         83
  17.1670         78
  17.1856         96
  17.2042         84
  17.2227         76
  17.2413         82
  17.2599         80
  17.2785         94
  17.2970         86
  17.3156         91
  17.3342         77
  17.3528         71
  17.3713         83
  17.3899         76
  17.4085         72
  17.4271         78
  17.4457         71
  17.4642         73
  17.4828         79
  17.5014         75
  17.5200         71
  17.5385         83
  17.5571         84
  17.5757         75
  17.5943         97
  17.6128         79
  17.6314         86
  17.6500         85
  17.6686         73
  17.6871         66
  17.7057         76
  17.7243         68
  17.7429         92
  17.7614         66
  17.7800         65
  17.7986         78
  17.8172         94
  17.8357         72
  17.8543         78
  17.8729         87
  17.8915         69
  17.9100         77
  17.9286         87
  17.9472         95
  17.9658         91
  17.9843         82
  18.0029         78
  18.0215         93
  18.0401         90
  18.0586         79
  18.0772         85
  18.0958         73
  18.1144         69
  18.1329         97
  18.1515         88
  18.1701         81
  18.1887         76
  18.2073         85
  18.2258         86
  18.2444         84
  18.2630         90
  18.2816         90
  18.3001         88
  18.3187         78
  18.3373         82
  18.3559         75
  18.3744         92
  18.3930         92
  18.4116         83
  18.4302         87
  18.4487         83
  18.4673         74
  18.4859         70
  18.5045         81
  18.5230         92
  18.5416         72
  18.5602         70
  18.5788         86
  18.5973         72
  18.6159         83
  18.6345         76
  18.6531         71
  18.6716         81
  18.6902         81
  18.7088         73
  18.7274         76
  18.7459         75
  18.7645         97
  18.7831         86
  18.8017         76
  18.8202         72
  18.8388         89
  18.8574         90
  18.8760         89
  18.8945         82
  18.9131         79
  18.9317         81
  18.9503         77
  18.9689         85
  18.9874         83
  19.0060         74
  19.0246         76
  19.0432         79
  19.0617         92
  19.0803         68
  19.0989         88
  19.1175         95
  19.1360         93
  19.1546         88
  19.1732         80
  19.1918         81
  19.2103         88
  19.2289         84
  19.2475         90
  19.2661         86
  19.2846         72
  19.3032         73
  19.3218         89
  19.3404         77
  19.3589         91
  19.3775         87
  19.3961         82
  19.4147         77
  19.4332         93
  19.4518         76
  19.4704         89
  19.4890         92
  19.5075         88
  19.5261         93
  19.5447         76
  19.5633         78
  19.5818         91
  19.6004         86
  19.6190         78
  19.6376         89
  19.6561         91
  19.6747         84
  19.6933         81
  19.7119         93
  19.7305         91
  19.7490        102
  19.7676        101
  19.7862         86
  19.8048         78
  19.8233         99
  19.8419         88
  19.8605         86
  19.8791         73
  19.8976         86
  19.9162         88
  19.9348         91
  19.9534         90
  19.9719         96
  19.9905        111
  20.0091         81
  20.0277         90
  20.0462         77
  20.0648        101
  20.0834         94
  20.1020         73
  20.1205         83
  20.1391         78
  20.1577         79
  20.1763         78
  20.1948         86
  20.2134         88
  20.2320         90
  20.2506         75
  20.2691         89
  20.2877         89
  20.3063         97
  20.3249         88
  20.3434         78
  20.3620         96
  20.3806         81
  20.3992         97
  20.4177         80
  20.4363         79
  20.4549        104
  20.4735         96
